Cam position [deg]	Lift [mm]	Speed [mps]	Acceleration [m/s^2]	Pulse [m/s^3]	Pressure Angle [deg]	Follower Force [N]	Normal Force [N]	Torque [N m]	Radius of Curvature [mm]	Specific Pressure [MPa]	Profile angle [deg]	Profile radius [mm]	Profile X coordinate [mm]	Profile Y coordinate [mm]	Follower path angle [deg]	Follower path radius [mm]	Follower path X coordinate [mm]	Follower path Y coordinate [mm]
0.0000	0.0000	0.000000	23.415490	-0.000000	0.0000	5.234155	5.234155	0.000000	-64.1167	39.496267	0.0000	40.0000	0.0000	40.0000	0.0000	52.0000	0.0000	52.0000
0.5000	0.0006	0.005420	23.412820	-23.075099	0.1584	5.234128	5.234148	0.000579	-64.1131	39.496414	0.5475	40.0007	0.3822	39.9989	0.5000	52.0006	0.4538	51.9986
1.0000	0.0025	0.010839	23.404808	-46.144934	0.3168	5.234048	5.234128	0.001158	-64.1025	39.496852	1.0950	40.0027	0.7645	39.9954	1.0000	52.0025	0.9076	51.9946
1.5000	0.0056	0.016255	23.391457	-69.204242	0.4750	5.233915	5.234094	0.001736	-64.0849	39.497583	1.6425	40.0062	1.1467	39.9897	1.5000	52.0056	1.3613	51.9878
2.0000	0.0100	0.021668	23.372770	-92.247763	0.6331	5.233728	5.234047	0.002314	-64.0602	39.498605	2.1899	40.0110	1.5289	39.9818	2.0000	52.0100	1.8151	51.9784
2.5000	0.0157	0.027076	23.348751	-115.270241	0.7911	5.233488	5.233986	0.002892	-64.0285	39.499917	2.7372	40.0172	1.9110	39.9715	2.5000	52.0157	2.2689	51.9662
3.0000	0.0226	0.032477	23.319406	-138.266423	0.9487	5.233194	5.233912	0.003469	-63.9899	39.501518	3.2844	40.0247	2.2931	39.9590	3.0000	52.0226	2.7227	51.9513
3.5000	0.0307	0.037871	23.284742	-161.231064	1.1061	5.232847	5.233823	0.004045	-63.9443	39.503406	3.8315	40.0336	2.6752	39.9441	3.5000	52.0307	3.1764	51.9337
4.0000	0.0401	0.043257	23.244765	-184.158924	1.2631	5.232448	5.233719	0.004620	-63.8918	39.505579	4.3785	40.0439	3.0571	39.9270	4.0000	52.0401	3.6301	51.9133
4.5000	0.0507	0.048632	23.199486	-207.044774	1.4197	5.231995	5.233601	0.005194	-63.8325	39.508034	4.9253	40.0555	3.4390	39.9076	4.5000	52.0507	4.0839	51.8903
5.0000	0.0626	0.053997	23.148915	-229.883393	1.5759	5.231489	5.233469	0.005767	-63.7665	39.510770	5.4719	40.0685	3.8208	39.8859	5.0000	52.0626	4.5376	51.8645
5.5000	0.0757	0.059349	23.093063	-252.669571	1.7316	5.230931	5.233320	0.006338	-63.6938	39.513782	6.0183	40.0829	4.2025	39.8619	5.5000	52.0757	4.9912	51.8360
6.0000	0.0901	0.064688	23.031943	-275.398109	1.8867	5.230319	5.233156	0.006909	-63.6145	39.517068	6.5645	40.0985	4.5841	39.8356	6.0000	52.0901	5.4449	51.8047
6.5000	0.1057	0.070011	22.965568	-298.063824	2.0412	5.229656	5.232976	0.007477	-63.5286	39.520625	7.1105	40.1156	4.9656	39.8071	6.5000	52.1057	5.8985	51.7707
7.0000	0.1225	0.075319	22.893955	-320.661544	2.1951	5.228940	5.232779	0.008044	-63.4364	39.524448	7.6562	40.1339	5.3470	39.7762	7.0000	52.1225	6.3521	51.7340
7.5000	0.1405	0.080610	22.817120	-343.186114	2.3483	5.228171	5.232566	0.008609	-63.3378	39.528534	8.2016	40.1536	5.7282	39.7430	7.5000	52.1405	6.8057	51.6945
8.0000	0.1598	0.085882	22.735079	-365.632397	2.5008	5.227351	5.232334	0.009172	-63.2329	39.532878	8.7468	40.1747	6.1093	39.7074	8.0000	52.1598	7.2592	51.6522
8.5000	0.1803	0.091135	22.647852	-387.995271	2.6525	5.226479	5.232084	0.009733	-63.1220	39.537475	9.2916	40.1970	6.4902	39.6696	8.5000	52.1803	7.7127	51.6072
9.0000	0.2020	0.096367	22.555458	-410.269635	2.8034	5.225555	5.231816	0.010292	-63.0050	39.542321	9.8361	40.2207	6.8709	39.6294	9.0000	52.2020	8.1662	51.5593
9.5000	0.2249	0.101577	22.457919	-432.450409	2.9534	5.224579	5.231528	0.010848	-62.8822	39.547411	10.3803	40.2456	7.2515	39.5869	9.5000	52.2249	8.6196	51.5087
10.0000	0.2490	0.106764	22.355257	-454.532531	3.1025	5.223553	5.231220	0.011402	-62.7536	39.552739	10.9241	40.2719	7.6318	39.5421	10.0000	52.2490	9.0729	51.4553
10.5000	0.2743	0.111926	22.247496	-476.510965	3.2506	5.222475	5.230891	0.011953	-62.6194	39.558299	11.4675	40.2994	8.0120	39.4949	10.5000	52.2743	9.5262	51.3990
11.0000	0.3009	0.117063	22.134659	-498.380697	3.3978	5.221347	5.230541	0.012502	-62.4798	39.564086	12.0105	40.3282	8.3919	39.4454	11.0000	52.3009	9.9795	51.3399
11.5000	0.3285	0.122173	22.016773	-520.136738	3.5439	5.220168	5.230169	0.013047	-62.3347	39.570093	12.5531	40.3583	8.7717	39.3935	11.5000	52.3285	10.4326	51.2780
12.0000	0.3574	0.127256	21.893864	-541.774125	3.6888	5.218939	5.229774	0.013590	-62.1845	39.576315	13.0953	40.3897	9.1511	39.3393	12.0000	52.3574	10.8857	51.2133
12.5000	0.3875	0.132309	21.765961	-563.287923	3.8327	5.217660	5.229355	0.014130	-62.0291	39.582745	13.6370	40.4223	9.5304	39.2827	12.5000	52.3875	11.3387	51.1457
13.0000	0.4187	0.137332	21.633092	-584.673222	3.9754	5.216331	5.228912	0.014666	-61.8689	39.589376	14.1783	40.4561	9.9093	39.2237	13.0000	52.4187	11.7916	51.0752
13.5000	0.4510	0.142324	21.495289	-605.925146	4.1169	5.214953	5.228444	0.015199	-61.7039	39.596201	14.7191	40.4912	10.2880	39.1624	13.5000	52.4510	12.2444	51.0018
14.0000	0.4846	0.147283	21.352582	-627.038845	4.2571	5.213526	5.227950	0.015728	-61.5343	39.603213	15.2595	40.5274	10.6664	39.0986	14.0000	52.4846	12.6972	50.9255
14.5000	0.5192	0.152209	21.205004	-648.009504	4.3960	5.212050	5.227429	0.016254	-61.3602	39.610406	15.7993	40.5649	11.0445	39.0325	14.5000	52.5192	13.1498	50.8464
15.0000	0.5550	0.157100	21.052589	-668.832338	4.5336	5.210526	5.226880	0.016776	-61.1818	39.617770	16.3386	40.6036	11.4223	38.9639	15.0000	52.5550	13.6022	50.7642
15.5000	0.5919	0.161955	20.895371	-689.502598	4.6699	5.208954	5.226303	0.017294	-60.9993	39.625300	16.8774	40.6435	11.7998	38.8929	15.5000	52.5919	14.0546	50.6792
16.0000	0.6300	0.166774	20.733387	-710.015567	4.8047	5.207334	5.225697	0.017808	-60.8129	39.632987	17.4156	40.6846	12.1769	38.8195	16.0000	52.6300	14.5068	50.5912
16.5000	0.6692	0.171554	20.566673	-730.366568	4.9381	5.205667	5.225061	0.018318	-60.6226	39.640824	17.9533	40.7268	12.5537	38.7437	16.5000	52.6692	14.9588	50.5002
17.0000	0.7094	0.176295	20.395267	-750.550957	5.0700	5.203953	5.224393	0.018823	-60.4286	39.648802	18.4905	40.7702	12.9301	38.6655	17.0000	52.7094	15.4107	50.4063
17.5000	0.7508	0.180996	20.219209	-770.564129	5.2004	5.202192	5.223694	0.019325	-60.2312	39.656913	19.0271	40.8147	13.3062	38.5847	17.5000	52.7508	15.8625	50.3093
18.0000	0.7932	0.185655	20.038538	-790.401520	5.3292	5.200385	5.222962	0.019821	-60.0304	39.665150	19.5631	40.8603	13.6818	38.5016	18.0000	52.7932	16.3140	50.2093
18.5000	0.8367	0.190272	19.853296	-810.058604	5.4565	5.198533	5.222197	0.020314	-59.8265	39.673503	20.0984	40.9070	14.0571	38.4159	18.5000	52.8367	16.7653	50.1063
19.0000	0.8813	0.194846	19.663525	-829.530897	5.5822	5.196635	5.221397	0.020801	-59.6195	39.681966	20.6332	40.9548	14.4319	38.3278	19.0000	52.8813	17.2165	50.0002
19.5000	0.9269	0.199376	19.469269	-848.813956	5.7062	5.194693	5.220562	0.021284	-59.4097	39.690528	21.1674	41.0037	14.8062	38.2372	19.5000	52.9269	17.6674	49.8911
20.0000	0.9736	0.203859	19.270571	-867.903384	5.8286	5.192706	5.219690	0.021761	-59.1973	39.699182	21.7010	41.0537	15.1801	38.1441	20.0000	52.9736	18.1180	49.7789
20.5000	1.0213	0.208297	19.067477	-886.794824	5.9492	5.190675	5.218782	0.022234	-58.9823	39.707919	22.2339	41.1047	15.5536	38.0485	20.5000	53.0213	18.5684	49.6636
21.0000	1.0700	0.212687	18.860033	-905.483969	6.0681	5.188600	5.217836	0.022701	-58.7650	39.716731	22.7662	41.1568	15.9265	37.9503	21.0000	53.0700	19.0186	49.5451
21.5000	1.1198	0.217028	18.648287	-923.966553	6.1853	5.186483	5.216852	0.023163	-58.5454	39.725609	23.2979	41.2099	16.2990	37.8497	21.5000	53.1198	19.4685	49.4236
22.0000	1.1705	0.221320	18.432287	-942.238362	6.3007	5.184323	5.215828	0.023620	-58.3238	39.734543	23.8289	41.2640	16.6709	37.7465	22.0000	53.1705	19.9180	49.2988
22.5000	1.2222	0.225561	18.212082	-960.295226	6.4142	5.182121	5.214764	0.024071	-58.1004	39.743527	24.3593	41.3191	17.0423	37.6407	22.5000	53.2222	20.3673	49.1709
23.0000	1.2749	0.229751	17.987723	-978.133027	6.5259	5.179877	5.213659	0.024517	-57.8751	39.752550	24.8890	41.3752	17.4132	37.5324	23.0000	53.2749	20.8162	49.0398
23.5000	1.3286	0.233888	17.759260	-995.747696	6.6358	5.177593	5.212512	0.024956	-57.6483	39.761605	25.4180	41.4322	17.7835	37.4216	23.5000	53.3286	21.2647	48.9055
24.0000	1.3832	0.237973	17.526746	-1013.135214	6.7438	5.175267	5.211323	0.025390	-57.4201	39.770682	25.9463	41.4902	18.1532	37.3081	24.0000	53.3832	21.7129	48.7680
24.5000	1.4387	0.242002	17.290234	-1030.291615	6.8498	5.172902	5.210091	0.025818	-57.1905	39.779774	26.4740	41.5491	18.5222	37.1921	24.5000	53.4387	22.1607	48.6272
25.0000	1.4952	0.245977	17.049778	-1047.212985	6.9539	5.170498	5.208815	0.026240	-56.9598	39.788870	27.0010	41.6089	18.8907	37.0734	25.0000	53.4952	22.6081	48.4831
25.5000	1.5526	0.249895	16.805432	-1063.895464	7.0561	5.168054	5.207494	0.026656	-56.7280	39.797964	27.5273	41.6696	19.2585	36.9522	25.5000	53.5526	23.0550	48.3358
26.0000	1.6109	0.253757	16.557252	-1080.335246	7.1563	5.165573	5.206128	0.027065	-56.4954	39.807046	28.0529	41.7312	19.6256	36.8283	26.0000	53.6109	23.5015	48.1852
26.5000	1.6701	0.257561	16.305295	-1096.528582	7.2545	5.163053	5.204717	0.027468	-56.2620	39.816108	28.5779	41.7936	19.9921	36.7018	26.5000	53.6701	23.9475	48.0312
27.0000	1.7301	0.261305	16.049619	-1112.471776	7.3507	5.160496	5.203259	0.027865	-56.0281	39.825142	29.1021	41.8569	20.3578	36.5727	27.0000	53.7301	24.3930	47.8739
27.5000	1.7911	0.264991	15.790282	-1128.161193	7.4449	5.157903	5.201754	0.028255	-55.7936	39.834139	29.6256	41.9211	20.7229	36.4409	27.5000	53.7911	24.8379	47.7133
28.0000	1.8528	0.268615	15.527342	-1143.593252	7.5370	5.155273	5.200201	0.028638	-55.5587	39.843091	30.1484	41.9860	21.0871	36.3064	28.0000	53.8528	25.2824	47.5492
28.5000	1.9154	0.272179	15.260861	-1158.764434	7.6271	5.152609	5.198601	0.029015	-55.3236	39.851990	30.6706	42.0518	21.4507	36.1693	28.5000	53.9154	25.7262	47.3818
29.0000	1.9788	0.275680	14.990898	-1173.671278	7.7150	5.149909	5.196952	0.029385	-55.0884	39.860828	31.1920	42.1183	21.8134	36.0295	29.0000	53.9788	26.1695	47.2109
29.5000	2.0430	0.279119	14.717515	-1188.310383	7.8009	5.147175	5.195254	0.029748	-54.8532	39.869598	31.7127	42.1856	22.1753	35.8870	29.5000	54.0430	26.6121	47.0367
30.0000	2.1080	0.282494	14.440775	-1202.678410	7.8847	5.144408	5.193506	0.030103	-54.6181	39.878291	32.2328	42.2536	22.5364	35.7418	30.0000	54.1080	27.0540	46.8589
30.5000	2.1738	0.285804	14.160741	-1216.772081	7.9664	5.141607	5.191709	0.030452	-54.3832	39.886900	32.7521	42.3223	22.8966	35.5939	30.5000	54.1738	27.4953	46.6777
31.0000	2.2404	0.289049	13.877476	-1230.588181	8.0459	5.138775	5.189862	0.030794	-54.1486	39.895418	33.2707	42.3918	23.2559	35.4433	31.0000	54.2404	27.9358	46.4931
31.5000	2.3076	0.292229	13.591045	-1244.123558	8.1233	5.135910	5.187964	0.031128	-53.9144	39.903836	33.7886	42.4619	23.6144	35.2899	31.5000	54.3076	28.3757	46.3049
32.0000	2.3756	0.295341	13.301515	-1257.375125	8.1985	5.133015	5.186016	0.031455	-53.6807	39.912148	34.3058	42.5327	23.9719	35.1338	32.0000	54.3756	28.8147	46.1132
32.5000	2.4444	0.298387	13.008949	-1270.339858	8.2715	5.130089	5.184017	0.031774	-53.4476	39.920348	34.8223	42.6042	24.3284	34.9749	32.5000	54.4444	29.2529	45.9179
33.0000	2.5138	0.301364	12.713417	-1283.014801	8.3424	5.127134	5.181966	0.032086	-53.2152	39.928427	35.3381	42.6763	24.6840	34.8133	33.0000	54.5138	29.6903	45.7191
33.5000	2.5839	0.304272	12.414984	-1295.397061	8.4111	5.124150	5.179865	0.032390	-52.9836	39.936379	35.8533	42.7490	25.0386	34.6489	33.5000	54.5839	30.1269	45.5167
34.0000	2.6546	0.307111	12.113719	-1307.483815	8.4776	5.121137	5.177712	0.032687	-52.7529	39.944198	36.3677	42.8223	25.3921	34.4817	34.0000	54.6546	30.5625	45.3108
34.5000	2.7261	0.309880	11.809690	-1319.272304	8.5419	5.118097	5.175507	0.032976	-52.5232	39.951878	36.8814	42.8962	25.7446	34.3118	34.5000	54.7261	30.9972	45.1012
35.0000	2.7981	0.312579	11.502968	-1330.759839	8.6041	5.115030	5.173251	0.033257	-52.2944	39.959411	37.3944	42.9707	26.0960	34.1391	35.0000	54.7981	31.4309	44.8880
35.5000	2.8708	0.315205	11.193621	-1341.943801	8.6640	5.111936	5.170943	0.033530	-52.0668	39.966793	37.9068	43.0457	26.4463	33.9635	35.5000	54.8708	31.8636	44.6711
36.0000	2.9440	0.317761	10.881721	-1352.821637	8.7216	5.108817	5.168583	0.033796	-51.8403	39.974017	38.4185	43.1212	26.7955	33.7852	36.0000	54.9440	32.2953	44.4506
36.5000	3.0179	0.320243	10.567339	-1363.390867	8.7771	5.105673	5.166172	0.034053	-51.6151	39.981078	38.9294	43.1972	27.1435	33.6040	36.5000	55.0179	32.7259	44.2265
37.0000	3.0923	0.322653	10.250546	-1373.649079	8.8304	5.102505	5.163710	0.034302	-51.3912	39.987971	39.4398	43.2737	27.4904	33.4200	37.0000	55.0923	33.1554	43.9986
37.5000	3.1672	0.324989	9.931414	-1383.593933	8.8814	5.099314	5.161196	0.034543	-51.1687	39.994689	39.9494	43.3507	27.8360	33.2332	37.5000	55.1672	33.5837	43.7671
38.0000	3.2427	0.327250	9.610017	-1393.223161	8.9302	5.096100	5.158632	0.034776	-50.9476	40.001229	40.4583	43.4282	28.1803	33.0435	38.0000	55.2427	34.0108	43.5319
38.5000	3.3187	0.329437	9.286428	-1402.534565	8.9767	5.092864	5.156016	0.035001	-50.7280	40.007586	40.9666	43.5060	28.5234	32.8510	38.5000	55.3187	34.4367	43.2929
39.0000	3.3952	0.331549	8.960720	-1411.526022	9.0211	5.089607	5.153350	0.035218	-50.5100	40.013754	41.4743	43.5843	28.8652	32.6557	39.0000	55.3952	34.8614	43.0502
39.5000	3.4722	0.333586	8.632968	-1420.195481	9.0632	5.086330	5.150634	0.035426	-50.2935	40.019729	41.9813	43.6630	29.2056	32.4575	39.5000	55.4722	35.2847	42.8037
40.0000	3.5497	0.335546	8.303247	-1428.540964	9.1030	5.083032	5.147868	0.035626	-50.0787	40.025508	42.4876	43.7420	29.5447	32.2564	40.0000	55.5497	35.7066	42.5535
40.5000	3.6276	0.337430	7.971632	-1436.560567	9.1407	5.079716	5.145052	0.035817	-49.8655	40.031087	42.9933	43.8214	29.8824	32.0525	40.5000	55.6276	36.1272	42.2995
41.0000	3.7059	0.339236	7.638198	-1444.252460	9.1761	5.076382	5.142187	0.036000	-49.6541	40.036461	43.4983	43.9012	30.2186	31.8457	41.0000	55.7059	36.5463	42.0418
41.5000	3.7846	0.340966	7.303022	-1451.614890	9.2093	5.073030	5.139273	0.036174	-49.4445	40.041628	44.0027	43.9812	30.5534	31.6360	41.5000	55.7846	36.9640	41.7802
42.0000	3.8637	0.342617	6.966180	-1458.646176	9.2402	5.069662	5.136312	0.036340	-49.2367	40.046584	44.5064	44.0616	30.8867	31.4235	42.0000	55.8637	37.3801	41.5148
42.5000	3.9432	0.344191	6.627749	-1465.344715	9.2690	5.066277	5.133302	0.036498	-49.0307	40.051325	45.0096	44.1422	31.2185	31.2081	42.5000	55.9432	37.7947	41.2457
43.0000	4.0231	0.345686	6.287805	-1471.708978	9.2955	5.062878	5.130246	0.036646	-48.8266	40.055850	45.5121	44.2232	31.5487	30.9898	43.0000	56.0231	38.2076	40.9727
43.5000	4.1033	0.347102	5.946428	-1477.737513	9.3198	5.059464	5.127143	0.036786	-48.6245	40.060156	46.0140	44.3043	31.8774	30.7686	43.5000	56.1033	38.6189	40.6959
44.0000	4.1838	0.348439	5.603694	-1483.428946	9.3419	5.056037	5.123995	0.036918	-48.4242	40.064240	46.5153	44.3857	32.2044	30.5445	44.0000	56.1838	39.0285	40.4152
44.5000	4.2646	0.349696	5.259681	-1488.781979	9.3618	5.052597	5.120801	0.037041	-48.2259	40.068101	47.0160	44.4673	32.5297	30.3175	44.5000	56.2646	39.4364	40.1307
45.0000	4.3457	0.350873	4.914469	-1493.795389	9.3795	5.049145	5.117563	0.037155	-48.0297	40.071736	47.5160	44.5490	32.8534	30.0877	45.0000	56.3457	39.8424	39.8424
45.5000	4.4270	0.351971	4.568136	-1498.468033	9.3950	5.045681	5.114282	0.037260	-47.8354	40.075144	48.0155	44.6310	33.1754	29.8550	45.5000	56.4270	40.2466	39.5502
46.0000	4.5086	0.352988	4.220760	-1502.798845	9.4083	5.042208	5.110957	0.037357	-47.6431	40.078323	48.5144	44.7131	33.4956	29.6193	46.0000	56.5086	40.6489	39.2542
46.5000	4.5904	0.353925	3.872422	-1506.786838	9.4194	5.038724	5.107591	0.037445	-47.4530	40.081272	49.0128	44.7953	33.8140	29.3808	46.5000	56.5904	41.0492	38.9543
47.0000	4.6724	0.354781	3.523200	-1510.431102	9.4283	5.035232	5.104183	0.037524	-47.2648	40.083990	49.5105	44.8776	34.1306	29.1394	47.0000	56.6724	41.4476	38.6505
47.5000	4.7547	0.355556	3.173175	-1513.730805	9.4351	5.031732	5.100735	0.037594	-47.0788	40.086477	50.0077	44.9601	34.4453	28.8951	47.5000	56.7547	41.8439	38.3429
48.0000	4.8370	0.356250	2.822425	-1516.685194	9.4397	5.028224	5.097248	0.037656	-46.8949	40.088732	50.5043	45.0426	34.7581	28.6480	48.0000	56.8370	42.2382	38.0314
48.5000	4.9196	0.356863	2.471032	-1519.293597	9.4422	5.024710	5.093722	0.037708	-46.7130	40.090754	51.0004	45.1251	35.0690	28.3979	48.5000	56.9196	42.6302	37.7161
49.0000	5.0023	0.357394	2.119076	-1521.555416	9.4426	5.021191	5.090160	0.037752	-46.5333	40.092544	51.4959	45.2077	35.3779	28.1450	49.0000	57.0023	43.0201	37.3968
49.5000	5.0850	0.357844	1.766635	-1523.470138	9.4408	5.017666	5.086560	0.037787	-46.3557	40.094101	51.9909	45.2904	35.6849	27.8892	49.5000	57.0850	43.4078	37.0738
50.0000	5.1679	0.358212	1.413792	-1525.037324	9.4368	5.014138	5.082926	0.037814	-46.1803	40.095426	52.4853	45.3730	35.9897	27.6306	50.0000	57.1679	43.7932	36.7468
50.5000	5.2509	0.358498	1.060626	-1526.256617	9.4308	5.010606	5.079257	0.037831	-46.0070	40.096520	52.9792	45.4556	36.2925	27.3690	50.5000	57.2509	44.1762	36.4160
51.0000	5.3339	0.358703	0.707219	-1527.127740	9.4227	5.007072	5.075555	0.037840	-45.8359	40.097383	53.4726	45.5382	36.5932	27.1047	51.0000	57.3339	44.5568	36.0814
51.5000	5.4169	0.358826	0.353650	-1527.650493	9.4125	5.003536	5.071820	0.037840	-45.6669	40.098016	53.9655	45.6207	36.8918	26.8374	51.5000	57.4169	44.9350	35.7429
52.0000	5.5000	0.358867	0.000000	-1527.824757	9.4002	5.000000	5.068055	0.037831	-45.5000	40.098420	54.4578	45.7032	37.1881	26.5673	52.0000	57.5000	45.3106	35.4005
52.5000	5.5831	0.358826	-0.353650	-1527.650493	9.3858	4.996464	5.064261	0.037814	-45.3353	40.098597	54.9497	45.7856	37.4823	26.2944	52.5000	57.5831	45.6837	35.0544
53.0000	5.6661	0.358703	-0.707219	-1527.127740	9.3694	4.992928	5.060437	0.037787	-45.1728	40.098549	55.4411	45.8678	37.7741	26.0187	53.0000	57.6661	46.0542	34.7043
53.5000	5.7491	0.358498	-1.060626	-1526.256617	9.3509	4.989394	5.056587	0.037752	-45.0124	40.098276	55.9319	45.9500	38.0637	25.7401	53.5000	57.7491	46.4220	34.3505
54.0000	5.8321	0.358212	-1.413792	-1525.037324	9.3304	4.985862	5.052710	0.037709	-44.8541	40.097781	56.4223	46.0320	38.3509	25.4588	54.0000	57.8321	46.7871	33.9928
54.5000	5.9150	0.357844	-1.766635	-1523.470138	9.3079	4.982334	5.048809	0.037656	-44.6980	40.097066	56.9122	46.1138	38.6358	25.1746	54.5000	57.9150	47.1495	33.6314
55.0000	5.9977	0.357394	-2.119076	-1521.555416	9.2833	4.978809	5.044884	0.037595	-44.5441	40.096134	57.4017	46.1955	38.9182	24.8877	55.0000	57.9977	47.5090	33.2661
55.5000	6.0804	0.356863	-2.471032	-1519.293597	9.2568	4.975290	5.040936	0.037525	-44.3923	40.094986	57.8906	46.2770	39.1982	24.5979	55.5000	58.0804	47.8656	32.8971
56.0000	6.1630	0.356250	-2.822425	-1516.685194	9.2283	4.971776	5.036968	0.037447	-44.2426	40.093626	58.3791	46.3582	39.4757	24.3054	56.0000	58.1630	48.2193	32.5243
56.5000	6.2453	0.355556	-3.173175	-1513.730805	9.1978	4.968268	5.032981	0.037360	-44.0951	40.092057	58.8672	46.4393	39.7507	24.0102	56.5000	58.2453	48.5700	32.1478
57.0000	6.3276	0.354781	-3.523200	-1510.431102	9.1654	4.964768	5.028975	0.037264	-43.9496	40.090280	59.3548	46.5200	40.0231	23.7122	57.0000	58.3276	48.9176	31.7675
57.5000	6.4096	0.353925	-3.872422	-1506.786838	9.1310	4.961276	5.024952	0.037160	-43.8063	40.088300	59.8420	46.6006	40.2929	23.4115	57.5000	58.4096	49.2621	31.3834
58.0000	6.4914	0.352988	-4.220760	-1502.798845	9.0947	4.957792	5.020914	0.037048	-43.6651	40.086120	60.3288	46.6808	40.5600	23.1080	58.0000	58.4914	49.6035	30.9957
58.5000	6.5730	0.351971	-4.568136	-1498.468033	9.0566	4.954319	5.016862	0.036927	-43.5260	40.083742	60.8151	46.7608	40.8245	22.8019	58.5000	58.5730	49.9417	30.6043
59.0000	6.6543	0.350873	-4.914469	-1493.795389	9.0165	4.950855	5.012797	0.036798	-43.3889	40.081172	61.3010	46.8404	41.0863	22.4931	59.0000	58.6543	50.2766	30.2092
59.5000	6.7354	0.349696	-5.259681	-1488.781979	8.9745	4.947403	5.008720	0.036660	-43.2540	40.078412	61.7865	46.9197	41.3453	22.1817	59.5000	58.7354	50.6082	29.8105
60.0000	6.8162	0.348439	-5.603694	-1483.428946	8.9307	4.943963	5.004634	0.036514	-43.1211	40.075467	62.2716	46.9986	41.6015	21.8676	60.0000	58.8162	50.9364	29.4081
60.5000	6.8967	0.347102	-5.946428	-1477.737513	8.8850	4.940536	5.000540	0.036360	-42.9902	40.072340	62.7563	47.0772	41.8548	21.5508	60.5000	58.8967	51.2611	29.0021
61.0000	6.9769	0.345686	-6.287805	-1471.708978	8.8375	4.937122	4.996439	0.036197	-42.8614	40.069035	63.2406	47.1554	42.1053	21.2315	61.0000	58.9769	51.5824	28.5926
61.5000	7.0568	0.344191	-6.627749	-1465.344715	8.7881	4.933723	4.992332	0.036026	-42.7347	40.065558	63.7245	47.2332	42.3529	20.9096	61.5000	59.0568	51.9001	28.1795
62.0000	7.1363	0.342617	-6.966180	-1458.646176	8.7370	4.930338	4.988222	0.035848	-42.6099	40.061911	64.2080	47.3106	42.5975	20.5851	62.0000	59.1363	52.2142	27.7628
62.5000	7.2154	0.340966	-7.303022	-1451.614890	8.6841	4.926970	4.984108	0.035661	-42.4871	40.058101	64.6912	47.3876	42.8392	20.2580	62.5000	59.2154	52.5247	27.3426
63.0000	7.2941	0.339236	-7.638198	-1444.252460	8.6294	4.923618	4.979994	0.035466	-42.3664	40.054130	65.1740	47.4641	43.0778	19.9285	63.0000	59.2941	52.8314	26.9190
63.5000	7.3724	0.337430	-7.971632	-1436.560567	8.5730	4.920284	4.975880	0.035263	-42.2476	40.050005	65.6564	47.5402	43.3134	19.5964	63.5000	59.3724	53.1344	26.4919
64.0000	7.4503	0.335546	-8.303247	-1428.540964	8.5148	4.916968	4.971768	0.035052	-42.1308	40.045730	66.1385	47.6158	43.5458	19.2619	64.0000	59.4503	53.4336	26.0613
64.5000	7.5278	0.333586	-8.632968	-1420.195481	8.4549	4.913670	4.967660	0.034834	-42.0159	40.041309	66.6202	47.6908	43.7752	18.9249	64.5000	59.5278	53.7289	25.6274
65.0000	7.6048	0.331549	-8.960720	-1411.526022	8.3934	4.910393	4.963556	0.034607	-41.9030	40.036749	67.1016	47.7654	44.0013	18.5854	65.0000	59.6048	54.0203	25.1901
65.5000	7.6813	0.329437	-9.286428	-1402.534565	8.3301	4.907136	4.959459	0.034373	-41.7919	40.032053	67.5826	47.8395	44.2243	18.2436	65.5000	59.6813	54.3076	24.7494
66.0000	7.7573	0.327250	-9.610017	-1393.223161	8.2652	4.903900	4.955370	0.034131	-41.6828	40.027227	68.0633	47.9130	44.4439	17.8994	66.0000	59.7573	54.5910	24.3055
66.5000	7.8328	0.324989	-9.931414	-1383.593933	8.1986	4.900686	4.951290	0.033882	-41.5756	40.022277	68.5437	47.9859	44.6604	17.5528	66.5000	59.8328	54.8702	23.8583
67.0000	7.9077	0.322653	-10.250546	-1373.649079	8.1305	4.897495	4.947221	0.033625	-41.4703	40.017207	69.0238	48.0583	44.8734	17.2040	67.0000	59.9077	55.1453	23.4078
67.5000	7.9821	0.320243	-10.567339	-1363.390867	8.0607	4.894327	4.943164	0.033361	-41.3668	40.012024	69.5035	48.1301	45.0832	16.8528	67.5000	59.9821	55.4163	22.9542
68.0000	8.0560	0.317761	-10.881721	-1352.821637	7.9893	4.891183	4.939121	0.033089	-41.2652	40.006731	69.9829	48.2013	45.2895	16.4993	68.0000	60.0560	55.6829	22.4974
68.5000	8.1292	0.315205	-11.193621	-1341.943801	7.9163	4.888064	4.935094	0.032810	-41.1654	40.001336	70.4621	48.2719	45.4924	16.1436	68.5000	60.1292	55.9453	22.0374
69.0000	8.2019	0.312579	-11.502968	-1330.759839	7.8418	4.884970	4.931083	0.032524	-41.0674	39.995843	70.9409	48.3419	45.6919	15.7857	69.0000	60.2019	56.2033	21.5744
69.5000	8.2739	0.309880	-11.809690	-1319.272304	7.7658	4.881903	4.927091	0.032231	-40.9712	39.990259	71.4194	48.4112	45.8878	15.4256	69.5000	60.2739	56.4569	21.1084
70.0000	8.3454	0.307111	-12.113719	-1307.483815	7.6882	4.878863	4.923118	0.031930	-40.8768	39.984588	71.8977	48.4798	46.0802	15.0634	70.0000	60.3454	56.7061	20.6393
70.5000	8.4161	0.304272	-12.414984	-1295.397061	7.6092	4.875850	4.919167	0.031623	-40.7842	39.978836	72.3756	48.5478	46.2691	14.6991	70.5000	60.4161	56.9507	20.1673
71.0000	8.4862	0.301364	-12.713417	-1283.014801	7.5286	4.872866	4.915238	0.031308	-40.6933	39.973009	72.8533	48.6151	46.4543	14.3326	71.0000	60.4862	57.1908	19.6924
71.5000	8.5556	0.298387	-13.008949	-1270.339858	7.4467	4.869911	4.911333	0.030987	-40.6042	39.967114	73.3307	48.6817	46.6359	13.9642	71.5000	60.5556	57.4263	19.2146
72.0000	8.6244	0.295341	-13.301515	-1257.375125	7.3632	4.866985	4.907454	0.030659	-40.5168	39.961154	73.8079	48.7476	46.8139	13.5937	72.0000	60.6244	57.6572	18.7340
72.5000	8.6924	0.292229	-13.591045	-1244.123558	7.2784	4.864090	4.903601	0.030324	-40.4311	39.955137	74.2848	48.8127	46.9881	13.2212	72.5000	60.6924	57.8833	18.2505
73.0000	8.7596	0.289049	-13.877476	-1230.588181	7.1922	4.861225	4.899777	0.029983	-40.3471	39.949068	74.7614	48.8772	47.1586	12.8468	73.0000	60.7596	58.1047	17.7644
73.5000	8.8262	0.285804	-14.160741	-1216.772081	7.1045	4.858393	4.895983	0.029635	-40.2648	39.942953	75.2378	48.9408	47.3254	12.4705	73.5000	60.8262	58.3213	17.2756
74.0000	8.8920	0.282494	-14.440775	-1202.678410	7.0156	4.855592	4.892220	0.029281	-40.1842	39.936798	75.7139	49.0037	47.4883	12.0923	74.0000	60.8920	58.5331	16.7841
74.5000	8.9570	0.279119	-14.717515	-1188.310383	6.9252	4.852825	4.888490	0.028921	-40.1052	39.930608	76.1898	49.0658	47.6474	11.7123	74.5000	60.9570	58.7400	16.2900
75.0000	9.0212	0.275680	-14.990898	-1173.671278	6.8336	4.850091	4.884793	0.028554	-40.0278	39.924389	76.6655	49.1272	47.8027	11.3305	75.0000	61.0212	58.9419	15.7934
75.5000	9.0846	0.272179	-15.260861	-1158.764434	6.7407	4.847391	4.881132	0.028181	-39.9521	39.918147	77.1409	49.1877	47.9541	10.9469	75.5000	61.0846	59.1389	15.2944
76.0000	9.1472	0.268615	-15.527342	-1143.593252	6.6465	4.844727	4.877507	0.027802	-39.8780	39.911888	77.6161	49.2474	48.1016	10.5616	76.0000	61.1472	59.3308	14.7928
76.5000	9.2089	0.264991	-15.790282	-1128.161193	6.5510	4.842097	4.873921	0.027417	-39.8055	39.905617	78.0911	49.3063	48.2451	10.1747	76.5000	61.2089	59.5177	14.2889
77.0000	9.2699	0.261305	-16.049619	-1112.471776	6.4543	4.839504	4.870373	0.027026	-39.7345	39.899341	78.5659	49.3643	48.3846	9.7861	77.0000	61.2699	59.6995	13.7827
77.5000	9.3299	0.257561	-16.305295	-1096.528582	6.3564	4.836947	4.866866	0.026630	-39.6651	39.893064	79.0404	49.4215	48.5202	9.3959	77.5000	61.3299	59.8761	13.2742
78.0000	9.3891	0.253757	-16.557252	-1080.335246	6.2573	4.834427	4.863401	0.026227	-39.5973	39.886793	79.5148	49.4779	48.6517	9.0041	78.0000	61.3891	60.0476	12.7635
78.5000	9.4474	0.249895	-16.805432	-1063.895464	6.1570	4.831946	4.859979	0.025819	-39.5310	39.880533	79.9889	49.5333	48.7791	8.6108	78.5000	61.4474	60.2138	12.2506
79.0000	9.5048	0.245977	-17.049778	-1047.212985	6.0556	4.829502	4.856602	0.025406	-39.4662	39.874289	80.4628	49.5879	48.9025	8.2161	79.0000	61.5048	60.3748	11.7357
79.5000	9.5613	0.242002	-17.290234	-1030.291615	5.9530	4.827098	4.853270	0.024987	-39.4030	39.868068	80.9366	49.6416	49.0218	7.8199	79.5000	61.5613	60.5304	11.2186
80.0000	9.6168	0.237973	-17.526746	-1013.135214	5.8493	4.824733	4.849985	0.024563	-39.3412	39.861874	81.4102	49.6943	49.1369	7.4223	80.0000	61.6168	60.6807	10.6996
80.5000	9.6714	0.233888	-17.759260	-995.747696	5.7446	4.822407	4.846748	0.024133	-39.2810	39.855714	81.8835	49.7462	49.2479	7.0234	80.5000	61.6714	60.8256	10.1787
81.0000	9.7251	0.229751	-17.987723	-978.133027	5.6387	4.820123	4.843560	0.023699	-39.2222	39.849592	82.3567	49.7971	49.3547	6.6232	81.0000	61.7251	60.9651	9.6559
81.5000	9.7778	0.225561	-18.212082	-960.295226	5.5319	4.817879	4.840422	0.023259	-39.1648	39.843514	82.8298	49.8471	49.4573	6.2218	81.5000	61.7778	61.0992	9.1313
82.0000	9.8295	0.221320	-18.432287	-942.238362	5.4240	4.815677	4.837336	0.022815	-39.1089	39.837485	83.3026	49.8961	49.5556	5.8191	82.0000	61.8295	61.2278	8.6050
82.5000	9.8802	0.217028	-18.648287	-923.966553	5.3150	4.813517	4.834303	0.022366	-39.0545	39.831511	83.7753	49.9442	49.6498	5.4153	82.5000	61.8802	61.3509	8.0770
83.0000	9.9300	0.212687	-18.860033	-905.483969	5.2052	4.811400	4.831323	0.021912	-39.0015	39.825595	84.2478	49.9913	49.7396	5.0104	83.0000	61.9300	61.4684	7.5474
83.5000	9.9787	0.208297	-19.067477	-886.794824	5.0943	4.809325	4.828398	0.021453	-38.9498	39.819745	84.7202	50.0375	49.8252	4.6044	83.5000	61.9787	61.5803	7.0162
84.0000	10.0264	0.203859	-19.270571	-867.903384	4.9825	4.807294	4.825529	0.020990	-38.8996	39.813964	85.1924	50.0826	49.9064	4.1974	84.0000	62.0264	61.6866	6.4835
84.5000	10.0731	0.199376	-19.469269	-848.813956	4.8698	4.805307	4.822717	0.020522	-38.8508	39.808257	85.6645	50.1268	49.9833	3.7894	84.5000	62.0731	61.7873	5.9494
85.0000	10.1187	0.194846	-19.663525	-829.530897	4.7562	4.803365	4.819962	0.020051	-38.8033	39.802629	86.1364	50.1699	50.0559	3.3805	85.0000	62.1187	61.8823	5.4140
85.5000	10.1633	0.190272	-19.853296	-810.058604	4.6418	4.801467	4.817267	0.019575	-38.7573	39.797086	86.6082	50.2120	50.1241	2.9707	85.5000	62.1633	61.9717	4.8773
86.0000	10.2068	0.185655	-20.038538	-790.401520	4.5264	4.799615	4.814631	0.019094	-38.7125	39.791631	87.0798	50.2531	50.1879	2.5601	86.0000	62.2068	62.0553	4.3393
86.5000	10.2492	0.180996	-20.219209	-770.564129	4.4103	4.797808	4.812057	0.018610	-38.6692	39.786269	87.5513	50.2932	50.2473	2.1488	86.5000	62.2492	62.1331	3.8002
87.0000	10.2906	0.176295	-20.395267	-750.550957	4.2933	4.796047	4.809544	0.018122	-38.6271	39.781005	88.0227	50.3323	50.3023	1.7366	87.0000	62.2906	62.2052	3.2600
87.5000	10.3308	0.171554	-20.566673	-730.366568	4.1756	4.794333	4.807093	0.017631	-38.5864	39.775843	88.4939	50.3703	50.3529	1.3239	87.5000	62.3308	62.2715	2.7188
88.0000	10.3700	0.166774	-20.733387	-710.015567	4.0571	4.792666	4.804707	0.017135	-38.5470	39.770787	88.9651	50.4072	50.3990	0.9104	88.0000	62.3700	62.3320	2.1767
88.5000	10.4081	0.161955	-20.895371	-689.502598	3.9379	4.791046	4.802384	0.016636	-38.5089	39.765842	89.4361	50.4431	50.4407	0.4965	88.5000	62.4081	62.3867	1.6337
89.0000	10.4450	0.157100	-21.052589	-668.832338	3.8179	4.789474	4.800127	0.016134	-38.4721	39.761011	89.9070	50.4779	50.4779	0.0819	89.0000	62.4450	62.4355	1.0898
89.5000	10.4808	0.152209	-21.205004	-648.009504	3.6973	4.787950	4.797936	0.015628	-38.4366	39.756299	90.3778	50.5117	50.5106	-0.3330	89.5000	62.4808	62.4784	0.5452
90.0000	10.5154	0.147283	-21.352582	-627.038845	3.5760	4.786474	4.795812	0.015119	-38.4024	39.751709	90.8485	50.5444	50.5388	-0.7485	90.0000	62.5154	62.5154	0.0000
90.5000	10.5490	0.142324	-21.495289	-605.925146	3.4540	4.785047	4.793755	0.014607	-38.3695	39.747245	91.3191	50.5759	50.5625	-1.1642	90.5000	62.5490	62.5466	-0.5458
91.0000	10.5813	0.137332	-21.633092	-584.673222	3.3314	4.783669	4.791767	0.014092	-38.3378	39.742912	91.7895	50.6064	50.5817	-1.5804	91.0000	62.5813	62.5718	-1.0922
91.5000	10.6125	0.132309	-21.765961	-563.287923	3.2082	4.782340	4.789847	0.013574	-38.3074	39.738711	92.2599	50.6358	50.5964	-1.9967	91.5000	62.6125	62.5911	-1.6390
92.0000	10.6426	0.127256	-21.893864	-541.774125	3.0845	4.781061	4.787998	0.013053	-38.2783	39.734647	92.7302	50.6641	50.6066	-2.4133	92.0000	62.6426	62.6044	-2.1862
92.5000	10.6715	0.122173	-22.016773	-520.136738	2.9601	4.779832	4.786219	0.012529	-38.2503	39.730723	93.2005	50.6913	50.6122	-2.8301	92.5000	62.6715	62.6118	-2.7337
93.0000	10.6991	0.117063	-22.134659	-498.380697	2.8353	4.778653	4.784510	0.012003	-38.2237	39.726943	93.6706	50.7173	50.6133	-3.2469	93.0000	62.6991	62.6132	-3.2814
93.5000	10.7257	0.111926	-22.247496	-476.510965	2.7099	4.777525	4.782874	0.011474	-38.1982	39.723308	94.1406	50.7422	50.6098	-3.6638	93.5000	62.7257	62.6087	-3.8293
94.0000	10.7510	0.106764	-22.355257	-454.532531	2.5841	4.776447	4.781309	0.010943	-38.1740	39.719823	94.6106	50.7660	50.6018	-4.0808	94.0000	62.7510	62.5981	-4.3773
94.5000	10.7751	0.101577	-22.457919	-432.450409	2.4577	4.775421	4.779818	0.010410	-38.1510	39.716490	95.0805	50.7887	50.5892	-4.4976	94.5000	62.7751	62.5816	-4.9253
95.0000	10.7980	0.096367	-22.555458	-410.269635	2.3310	4.774445	4.778399	0.009875	-38.1292	39.713311	95.5504	50.8103	50.5720	-4.9144	95.0000	62.7980	62.5590	-5.4732
95.5000	10.8197	0.091135	-22.647852	-387.995271	2.2038	4.773521	4.777055	0.009337	-38.1086	39.710290	96.0201	50.8307	50.5503	-5.3310	95.5000	62.8197	62.5305	-6.0210
96.0000	10.8402	0.085882	-22.735079	-365.632397	2.0762	4.772649	4.775784	0.008798	-38.0893	39.707428	96.4899	50.8499	50.5241	-5.7474	96.0000	62.8402	62.4959	-6.5686
96.5000	10.8595	0.080610	-22.817120	-343.186114	1.9482	4.771829	4.774589	0.008257	-38.0711	39.704728	96.9595	50.8680	50.4932	-6.1636	96.5000	62.8595	62.4554	-7.1159
97.0000	10.8775	0.075319	-22.893955	-320.661544	1.8199	4.771060	4.773468	0.007714	-38.0541	39.702192	97.4291	50.8850	50.4578	-6.5794	97.0000	62.8775	62.4088	-7.6628
97.5000	10.8943	0.070011	-22.965568	-298.063824	1.6913	4.770344	4.772423	0.007170	-38.0383	39.699822	97.8987	50.9008	50.4179	-6.9949	97.5000	62.8943	62.3562	-8.2094
98.0000	10.9099	0.064688	-23.031943	-275.398109	1.5624	4.769681	4.771454	0.006624	-38.0237	39.697620	98.3682	50.9154	50.3733	-7.4099	98.0000	62.9099	62.2977	-8.7554
98.5000	10.9243	0.059349	-23.093063	-252.669571	1.4332	4.769069	4.770562	0.006077	-38.0103	39.695587	98.8377	50.9289	50.3243	-7.8245	98.5000	62.9243	62.2331	-9.3008
99.0000	10.9374	0.053997	-23.148915	-229.883393	1.3037	4.768511	4.769746	0.005528	-37.9980	39.693726	99.3071	50.9412	50.2706	-8.2385	99.0000	62.9374	62.1625	-9.8456
99.5000	10.9493	0.048632	-23.199486	-207.044774	1.1740	4.768005	4.769006	0.004979	-37.9870	39.692038	99.7765	50.9524	50.2124	-8.6520	99.5000	62.9493	62.0860	-10.3896
100.0000	10.9599	0.043257	-23.244765	-184.158924	1.0441	4.767552	4.768344	0.004428	-37.9771	39.690524	100.2458	50.9624	50.1497	-9.0648	100.0000	62.9599	62.0034	-10.9329
100.5000	10.9693	0.037871	-23.284742	-161.231064	0.9140	4.767153	4.767759	0.003876	-37.9683	39.689185	100.7152	50.9712	50.0824	-9.4769	100.5000	62.9693	61.9149	-11.4752
101.0000	10.9774	0.032477	-23.319406	-138.266423	0.7837	4.766806	4.767252	0.003324	-37.9608	39.688023	101.1845	50.9788	50.0106	-9.8883	101.0000	62.9774	61.8204	-12.0167
101.5000	10.9843	0.027076	-23.348751	-115.270241	0.6533	4.766512	4.766822	0.002771	-37.9544	39.687037	101.6538	50.9853	49.9343	-10.2989	101.5000	62.9843	61.7199	-12.5571
102.0000	10.9900	0.021668	-23.372770	-92.247763	0.5228	4.766272	4.766471	0.002218	-37.9492	39.686230	102.1230	50.9906	49.8534	-10.7086	102.0000	62.9900	61.6135	-13.0964
102.5000	10.9944	0.016255	-23.391457	-69.204242	0.3922	4.766085	4.766197	0.001664	-37.9451	39.685602	102.5923	50.9947	49.7681	-11.1174	102.5000	62.9944	61.5011	-13.6345
103.0000	10.9975	0.010839	-23.404808	-46.144934	0.2615	4.765952	4.766002	0.001109	-37.9422	39.685153	103.0615	50.9976	49.6782	-11.5253	103.0000	62.9975	61.3829	-14.1714
103.5000	10.9994	0.005420	-23.412820	-23.075099	0.1308	4.765872	4.765884	0.000555	-37.9404	39.684883	103.5308	50.9994	49.5839	-11.9322	103.5000	62.9994	61.2587	-14.7069
104.0000	11.0000	0.000000	-23.415490	-0.000000	0.0000	4.765845	4.765845	0.000000	-37.9399	39.684793	104.0000	51.0000	49.4851	-12.3380	104.0000	63.0000	61.1286	-15.2411
104.5000	10.9994	-0.005420	-23.412820	23.075099	-0.1308	4.765872	4.765884	-0.000555	-37.9404	39.684883	104.4692	50.9994	49.3818	-12.7427	104.5000	62.9994	60.9927	-15.7738
105.0000	10.9975	-0.010839	-23.404808	46.144934	-0.2615	4.765952	4.766002	-0.001109	-37.9422	39.685153	104.9385	50.9976	49.2741	-13.1463	105.0000	62.9975	60.8509	-16.3050
105.5000	10.9944	-0.016255	-23.391457	69.204242	-0.3922	4.766085	4.766197	-0.001664	-37.9451	39.685602	105.4077	50.9947	49.1619	-13.5486	105.5000	62.9944	60.7033	-16.8345
106.0000	10.9900	-0.021668	-23.372770	92.247763	-0.5228	4.766272	4.766471	-0.002218	-37.9492	39.686230	105.8770	50.9906	49.0454	-13.9496	106.0000	62.9900	60.5498	-17.3624
106.5000	10.9843	-0.027076	-23.348751	115.270241	-0.6533	4.766512	4.766822	-0.002771	-37.9544	39.687037	106.3462	50.9853	48.9244	-14.3494	106.5000	62.9843	60.3906	-17.8885
107.0000	10.9774	-0.032477	-23.319406	138.266423	-0.7837	4.766806	4.767252	-0.003324	-37.9608	39.688023	106.8155	50.9788	48.7990	-14.7477	107.0000	62.9774	60.2256	-18.4128
107.5000	10.9693	-0.037871	-23.284742	161.231064	-0.9140	4.767153	4.767759	-0.003876	-37.9683	39.689185	107.2848	50.9712	48.6693	-15.1447	107.5000	62.9693	60.0549	-18.9352
108.0000	10.9599	-0.043257	-23.244765	184.158924	-1.0441	4.767552	4.768344	-0.004428	-37.9771	39.690524	107.7542	50.9624	48.5352	-15.5401	108.0000	62.9599	59.8784	-19.4557
108.5000	10.9493	-0.048632	-23.199486	207.044774	-1.1740	4.768005	4.769006	-0.004979	-37.9870	39.692038	108.2235	50.9524	48.3968	-15.9341	108.5000	62.9493	59.6963	-19.9741
109.0000	10.9374	-0.053997	-23.148915	229.883393	-1.3037	4.768511	4.769746	-0.005528	-37.9980	39.693726	108.6929	50.9412	48.2541	-16.3265	109.0000	62.9374	59.5085	-20.4904
109.5000	10.9243	-0.059349	-23.093063	252.669571	-1.4332	4.769069	4.770562	-0.006077	-38.0103	39.695587	109.1623	50.9289	48.1070	-16.7172	109.5000	62.9243	59.3150	-21.0046
110.0000	10.9099	-0.064688	-23.031943	275.398109	-1.5624	4.769681	4.771454	-0.006624	-38.0237	39.697620	109.6318	50.9154	47.9558	-17.1063	110.0000	62.9099	59.1160	-21.5165
110.5000	10.8943	-0.070011	-22.965568	298.063824	-1.6913	4.770344	4.772423	-0.007170	-38.0383	39.699822	110.1013	50.9008	47.8002	-17.4937	110.5000	62.8943	58.9114	-22.0261
111.0000	10.8775	-0.075319	-22.893955	320.661544	-1.8199	4.771060	4.773468	-0.007714	-38.0541	39.702192	110.5709	50.8850	47.6405	-17.8792	111.0000	62.8775	58.7012	-22.5333
111.5000	10.8595	-0.080610	-22.817120	343.186114	-1.9482	4.771829	4.774589	-0.008257	-38.0711	39.704728	111.0405	50.8680	47.4765	-18.2630	111.5000	62.8595	58.4855	-23.0381
112.0000	10.8402	-0.085882	-22.735079	365.632397	-2.0762	4.772649	4.775784	-0.008798	-38.0893	39.707428	111.5101	50.8499	47.3084	-18.6449	112.0000	62.8402	58.2644	-23.5403
112.5000	10.8197	-0.091135	-22.647852	387.995271	-2.2038	4.773521	4.777055	-0.009337	-38.1086	39.710290	111.9799	50.8307	47.1361	-19.0249	112.5000	62.8197	58.0378	-24.0401
113.0000	10.7980	-0.096367	-22.555458	410.269635	-2.3310	4.774445	4.778399	-0.009875	-38.1292	39.713311	112.4496	50.8103	46.9596	-19.4030	113.0000	62.7980	57.8059	-24.5371
113.5000	10.7751	-0.101577	-22.457919	432.450409	-2.4577	4.775421	4.779818	-0.010410	-38.1510	39.716490	112.9195	50.7887	46.7791	-19.7790	113.5000	62.7751	57.5685	-25.0315
114.0000	10.7510	-0.106764	-22.355257	454.532531	-2.5841	4.776447	4.781309	-0.010943	-38.1740	39.719823	113.3894	50.7660	46.5945	-20.1530	114.0000	62.7510	57.3259	-25.5231
114.5000	10.7257	-0.111926	-22.247496	476.510965	-2.7099	4.777525	4.782874	-0.011474	-38.1982	39.723308	113.8594	50.7422	46.4059	-20.5249	114.5000	62.7257	57.0779	-26.0119
115.0000	10.6991	-0.117063	-22.134659	498.380697	-2.8353	4.778653	4.784510	-0.012003	-38.2237	39.726943	114.3294	50.7173	46.2132	-20.8946	115.0000	62.6991	56.8247	-26.4978
115.5000	10.6715	-0.122173	-22.016773	520.136738	-2.9601	4.779832	4.786219	-0.012529	-38.2503	39.730723	114.7995	50.6913	46.0166	-21.2622	115.5000	62.6715	56.5663	-26.9808
116.0000	10.6426	-0.127256	-21.893864	541.774125	-3.0845	4.781061	4.787998	-0.013053	-38.2783	39.734647	115.2698	50.6641	45.8159	-21.6275	116.0000	62.6426	56.3028	-27.4607
116.5000	10.6125	-0.132309	-21.765961	563.287923	-3.2082	4.782340	4.789847	-0.013574	-38.3074	39.738711	115.7401	50.6358	45.6114	-21.9906	116.5000	62.6125	56.0341	-27.9376
117.0000	10.5813	-0.137332	-21.633092	584.673222	-3.3314	4.783669	4.791767	-0.014092	-38.3378	39.742912	116.2105	50.6064	45.4030	-22.3513	117.0000	62.5813	55.7604	-28.4113
117.5000	10.5490	-0.142324	-21.495289	605.925146	-3.4540	4.785047	4.793755	-0.014607	-38.3695	39.747245	116.6809	50.5759	45.1906	-22.7097	117.5000	62.5490	55.4816	-28.8819
118.0000	10.5154	-0.147283	-21.352582	627.038845	-3.5760	4.786474	4.795812	-0.015119	-38.4024	39.751709	117.1515	50.5444	44.9745	-23.0657	118.0000	62.5154	55.1979	-29.3492
118.5000	10.4808	-0.152209	-21.205004	648.009504	-3.6973	4.787950	4.797936	-0.015628	-38.4366	39.756299	117.6222	50.5117	44.7546	-23.4192	118.5000	62.4808	54.9092	-29.8133
119.0000	10.4450	-0.157100	-21.052589	668.832338	-3.8179	4.789474	4.800127	-0.016134	-38.4721	39.761011	118.0930	50.4779	44.5308	-23.7703	119.0000	62.4450	54.6156	-30.2739
119.5000	10.4081	-0.161955	-20.895371	689.502598	-3.9379	4.791046	4.802384	-0.016636	-38.5089	39.765842	118.5639	50.4431	44.3034	-24.1188	119.5000	62.4081	54.3172	-30.7312
120.0000	10.3700	-0.166774	-20.733387	710.015567	-4.0571	4.792666	4.804707	-0.017135	-38.5470	39.770787	119.0349	50.4072	44.0723	-24.4648	120.0000	62.3700	54.0140	-31.1850
120.5000	10.3308	-0.171554	-20.566673	730.366568	-4.1756	4.794333	4.807093	-0.017631	-38.5864	39.775843	119.5061	50.3703	43.8374	-24.8081	120.5000	62.3308	53.7061	-31.6353
121.0000	10.2906	-0.176295	-20.395267	750.550957	-4.2933	4.796047	4.809544	-0.018122	-38.6271	39.781005	119.9773	50.3323	43.5990	-25.1489	121.0000	62.2906	53.3935	-32.0820
121.5000	10.2492	-0.180996	-20.219209	770.564129	-4.4103	4.797808	4.812057	-0.018610	-38.6692	39.786269	120.4487	50.2932	43.3570	-25.4869	121.5000	62.2492	53.0762	-32.5251
122.0000	10.2068	-0.185655	-20.038538	790.401520	-4.5264	4.799615	4.814631	-0.019094	-38.7125	39.791631	120.9202	50.2531	43.1114	-25.8223	122.0000	62.2068	52.7544	-32.9646
122.5000	10.1633	-0.190272	-19.853296	810.058604	-4.6418	4.801467	4.817267	-0.019575	-38.7573	39.797086	121.3918	50.2120	42.8623	-26.1548	122.5000	62.1633	52.4280	-33.4003
123.0000	10.1187	-0.194846	-19.663525	829.530897	-4.7562	4.803365	4.819962	-0.020051	-38.8033	39.802629	121.8636	50.1699	42.6097	-26.4846	123.0000	62.1187	52.0971	-33.8323
123.5000	10.0731	-0.199376	-19.469269	848.813956	-4.8698	4.805307	4.822717	-0.020522	-38.8508	39.808257	122.3355	50.1268	42.3536	-26.8116	123.5000	62.0731	51.7619	-34.2604
124.0000	10.0264	-0.203859	-19.270571	867.903384	-4.9825	4.807294	4.825529	-0.020990	-38.8996	39.813964	122.8076	50.0826	42.0942	-27.1357	124.0000	62.0264	51.4222	-34.6847
124.5000	9.9787	-0.208297	-19.067477	886.794824	-5.0943	4.809325	4.828398	-0.021453	-38.9498	39.819745	123.2798	50.0375	41.8314	-27.4570	124.5000	61.9787	51.0783	-35.1051
125.0000	9.9300	-0.212687	-18.860033	905.483969	-5.2052	4.811400	4.831323	-0.021912	-39.0015	39.825595	123.7522	49.9913	41.5652	-27.7753	125.0000	61.9300	50.7301	-35.5216
125.5000	9.8802	-0.217028	-18.648287	923.966553	-5.3150	4.813517	4.834303	-0.022366	-39.0545	39.831511	124.2247	49.9442	41.2958	-28.0906	125.5000	61.8802	50.3777	-35.9340
126.0000	9.8295	-0.221320	-18.432287	942.238362	-5.4240	4.815677	4.837336	-0.022815	-39.1089	39.837485	124.6974	49.8961	41.0231	-28.4030	126.0000	61.8295	50.0211	-36.3425
126.5000	9.7778	-0.225561	-18.212082	960.295226	-5.5319	4.817879	4.840422	-0.023259	-39.1648	39.843514	125.1702	49.8471	40.7472	-28.7123	126.5000	61.7778	49.6605	-36.7468
127.0000	9.7251	-0.229751	-17.987723	978.133027	-5.6387	4.820123	4.843560	-0.023699	-39.2222	39.849592	125.6433	49.7971	40.4682	-29.0186	127.0000	61.7251	49.2958	-37.1471
127.5000	9.6714	-0.233888	-17.759260	995.747696	-5.7446	4.822407	4.846748	-0.024133	-39.2810	39.855714	126.1165	49.7462	40.1860	-29.3218	127.5000	61.6714	48.9272	-37.5432
128.0000	9.6168	-0.237973	-17.526746	1013.135214	-5.8493	4.824733	4.849985	-0.024563	-39.3412	39.861874	126.5898	49.6943	39.9007	-29.6219	128.0000	61.6168	48.5547	-37.9351
128.5000	9.5613	-0.242002	-17.290234	1030.291615	-5.9530	4.827098	4.853270	-0.024987	-39.4030	39.868068	127.0634	49.6416	39.6124	-29.9189	128.5000	61.5613	48.1783	-38.3228
129.0000	9.5048	-0.245977	-17.049778	1047.212985	-6.0556	4.829502	4.856602	-0.025406	-39.4662	39.874289	127.5372	49.5879	39.3211	-30.2127	129.0000	61.5048	47.7982	-38.7062
129.5000	9.4474	-0.249895	-16.805432	1063.895464	-6.1570	4.831946	4.859979	-0.025819	-39.5310	39.880533	128.0111	49.5333	39.0269	-30.5033	129.5000	61.4474	47.4143	-39.0853
130.0000	9.3891	-0.253757	-16.557252	1080.335246	-6.2573	4.834427	4.863401	-0.026227	-39.5973	39.886793	128.4852	49.4779	38.7297	-30.7907	130.0000	61.3891	47.0268	-39.4601
130.5000	9.3299	-0.257561	-16.305295	1096.528582	-6.3564	4.836947	4.866866	-0.026630	-39.6651	39.893064	128.9596	49.4215	38.4297	-31.0749	130.5000	61.3299	46.6356	-39.8306
131.0000	9.2699	-0.261305	-16.049619	1112.471776	-6.4543	4.839504	4.870373	-0.027026	-39.7345	39.899341	129.4341	49.3643	38.1268	-31.3558	131.0000	61.2699	46.2409	-40.1966
131.5000	9.2089	-0.264991	-15.790282	1128.161193	-6.5510	4.842097	4.873921	-0.027417	-39.8055	39.905617	129.9089	49.3063	37.8212	-31.6334	131.5000	61.2089	45.8428	-40.5583
132.0000	9.1472	-0.268615	-15.527342	1143.593252	-6.6465	4.844727	4.877507	-0.027802	-39.8780	39.911888	130.3839	49.2474	37.5128	-31.9077	132.0000	61.1472	45.4412	-40.9154
132.5000	9.0846	-0.272179	-15.260861	1158.764434	-6.7407	4.847391	4.881132	-0.028181	-39.9521	39.918147	130.8591	49.1877	37.2017	-32.1786	132.5000	61.0846	45.0363	-41.2681
133.0000	9.0212	-0.275680	-14.990898	1173.671278	-6.8336	4.850091	4.884793	-0.028554	-40.0278	39.924389	131.3345	49.1272	36.8879	-32.4462	133.0000	61.0212	44.6281	-41.6163
133.5000	8.9570	-0.279119	-14.717515	1188.310383	-6.9252	4.852825	4.888490	-0.028921	-40.1052	39.930608	131.8102	49.0658	36.5716	-32.7105	133.5000	60.9570	44.2166	-41.9600
134.0000	8.8920	-0.282494	-14.440775	1202.678410	-7.0156	4.855592	4.892220	-0.029281	-40.1842	39.936798	132.2861	49.0037	36.2527	-32.9713	134.0000	60.8920	43.8020	-42.2991
134.5000	8.8262	-0.285804	-14.160741	1216.772081	-7.1045	4.858393	4.895983	-0.029635	-40.2648	39.942953	132.7622	48.9408	35.9313	-33.2287	134.5000	60.8262	43.3843	-42.6336
135.0000	8.7596	-0.289049	-13.877476	1230.588181	-7.1922	4.861225	4.899777	-0.029983	-40.3471	39.949068	133.2386	48.8772	35.6074	-33.4827	135.0000	60.7596	42.9636	-42.9636
135.5000	8.6924	-0.292229	-13.591045	1244.123558	-7.2784	4.864090	4.903601	-0.030324	-40.4311	39.955137	133.7152	48.8127	35.2810	-33.7332	135.5000	60.6924	42.5398	-43.2889
136.0000	8.6244	-0.295341	-13.301515	1257.375125	-7.3632	4.866985	4.907454	-0.030659	-40.5168	39.961154	134.1921	48.7476	34.9523	-33.9803	136.0000	60.6244	42.1132	-43.6095
136.5000	8.5556	-0.298387	-13.008949	1270.339858	-7.4467	4.869911	4.911333	-0.030987	-40.6042	39.967114	134.6693	48.6817	34.6213	-34.2239	136.5000	60.5556	41.6837	-43.9255
137.0000	8.4862	-0.301364	-12.713417	1283.014801	-7.5286	4.872866	4.915238	-0.031308	-40.6933	39.973009	135.1467	48.6151	34.2880	-34.4640	137.0000	60.4862	41.2515	-44.2368
137.5000	8.4161	-0.304272	-12.414984	1295.397061	-7.6092	4.875850	4.919167	-0.031623	-40.7842	39.978836	135.6244	48.5478	33.9524	-34.7005	137.5000	60.4161	40.8165	-44.5434
138.0000	8.3454	-0.307111	-12.113719	1307.483815	-7.6882	4.878863	4.923118	-0.031930	-40.8768	39.984588	136.1023	48.4798	33.6146	-34.9336	138.0000	60.3454	40.3789	-44.8453
138.5000	8.2739	-0.309880	-11.809690	1319.272304	-7.7658	4.881903	4.927091	-0.032231	-40.9712	39.990259	136.5806	48.4112	33.2746	-35.1630	138.5000	60.2739	39.9387	-45.1425
139.0000	8.2019	-0.312579	-11.502968	1330.759839	-7.8418	4.884970	4.931083	-0.032524	-41.0674	39.995843	137.0591	48.3419	32.9326	-35.3890	139.0000	60.2019	39.4960	-45.4350
139.5000	8.1292	-0.315205	-11.193621	1341.943801	-7.9163	4.888064	4.935094	-0.032810	-41.1654	40.001336	137.5379	48.2719	32.5884	-35.6114	139.5000	60.1292	39.0508	-45.7226
140.0000	8.0560	-0.317761	-10.881721	1352.821637	-7.9893	4.891183	4.939121	-0.033089	-41.2652	40.006731	138.0171	48.2013	32.2423	-35.8302	140.0000	60.0560	38.6032	-46.0055
140.5000	7.9821	-0.320243	-10.567339	1363.390867	-8.0607	4.894327	4.943164	-0.033361	-41.3668	40.012024	138.4965	48.1301	31.8942	-36.0454	140.5000	59.9821	38.1533	-46.2837
141.0000	7.9077	-0.322653	-10.250546	1373.649079	-8.1305	4.897495	4.947221	-0.033625	-41.4703	40.017207	138.9762	48.0583	31.5441	-36.2570	141.0000	59.9077	37.7012	-46.5570
141.5000	7.8328	-0.324989	-9.931414	1383.593933	-8.1986	4.900686	4.951290	-0.033882	-41.5756	40.022277	139.4563	47.9859	31.1922	-36.4650	141.5000	59.8328	37.2468	-46.8256
142.0000	7.7573	-0.327250	-9.610017	1393.223161	-8.2652	4.903900	4.955370	-0.034131	-41.6828	40.027227	139.9367	47.9130	30.8384	-36.6694	142.0000	59.7573	36.7902	-47.0894
142.5000	7.6813	-0.329437	-9.286428	1402.534565	-8.3301	4.907136	4.959459	-0.034373	-41.7919	40.032053	140.4174	47.8395	30.4828	-36.8702	142.5000	59.6813	36.3317	-47.3483
143.0000	7.6048	-0.331549	-8.960720	1411.526022	-8.3934	4.910393	4.963556	-0.034607	-41.9030	40.036749	140.8984	47.7654	30.1255	-37.0673	143.0000	59.6048	35.8710	-47.6025
143.5000	7.5278	-0.333586	-8.632968	1420.195481	-8.4549	4.913670	4.967660	-0.034834	-42.0159	40.041309	141.3798	47.6908	29.7665	-37.2609	143.5000	59.5278	35.4085	-47.8518
144.0000	7.4503	-0.335546	-8.303247	1428.540964	-8.5148	4.916968	4.971768	-0.035052	-42.1308	40.045730	141.8615	47.6158	29.4058	-37.4508	144.0000	59.4503	34.9440	-48.0963
144.5000	7.3724	-0.337430	-7.971632	1436.560567	-8.5730	4.920284	4.975880	-0.035263	-42.2476	40.050005	142.3436	47.5402	29.0435	-37.6370	144.5000	59.3724	34.4777	-48.3360
145.0000	7.2941	-0.339236	-7.638198	1444.252460	-8.6294	4.923618	4.979994	-0.035466	-42.3664	40.054130	142.8260	47.4641	28.6796	-37.8196	145.0000	59.2941	34.0097	-48.5709
145.5000	7.2154	-0.340966	-7.303022	1451.614890	-8.6841	4.926970	4.984108	-0.035661	-42.4871	40.058101	143.3088	47.3876	28.3142	-37.9986	145.5000	59.2154	33.5400	-48.8010
146.0000	7.1363	-0.342617	-6.966180	1458.646176	-8.7370	4.930338	4.988222	-0.035848	-42.6099	40.061911	143.7920	47.3106	27.9473	-38.1739	146.0000	59.1363	33.0686	-49.0262
146.5000	7.0568	-0.344191	-6.627749	1465.344715	-8.7881	4.933723	4.992332	-0.036026	-42.7347	40.065558	144.2755	47.2332	27.5790	-38.3455	146.5000	59.0568	32.5956	-49.2466
147.0000	6.9769	-0.345686	-6.287805	1471.708978	-8.8375	4.937122	4.996439	-0.036197	-42.8614	40.069035	144.7594	47.1554	27.2092	-38.5136	147.0000	58.9769	32.1211	-49.4622
147.5000	6.8967	-0.347102	-5.946428	1477.737513	-8.8850	4.940536	5.000540	-0.036360	-42.9902	40.072340	145.2437	47.0772	26.8381	-38.6779	147.5000	58.8967	31.6452	-49.6730
148.0000	6.8162	-0.348439	-5.603694	1483.428946	-8.9307	4.943963	5.004634	-0.036514	-43.1211	40.075467	145.7284	46.9986	26.4657	-38.8386	148.0000	58.8162	31.1679	-49.8790
148.5000	6.7354	-0.349696	-5.259681	1488.781979	-8.9745	4.947403	5.008720	-0.036660	-43.2540	40.078412	146.2135	46.9197	26.0920	-38.9957	148.5000	58.7354	30.6892	-50.0802
149.0000	6.6543	-0.350873	-4.914469	1493.795389	-9.0165	4.950855	5.012797	-0.036798	-43.3889	40.081172	146.6990	46.8404	25.7171	-39.1491	149.0000	58.6543	30.2092	-50.2766
149.5000	6.5730	-0.351971	-4.568136	1498.468033	-9.0566	4.954319	5.016862	-0.036927	-43.5260	40.083742	147.1849	46.7608	25.3411	-39.2989	149.5000	58.5730	29.7280	-50.4682
150.0000	6.4914	-0.352988	-4.220760	1502.798845	-9.0947	4.957792	5.020914	-0.037048	-43.6651	40.086120	147.6712	46.6808	24.9638	-39.4450	150.0000	58.4914	29.2457	-50.6550
150.5000	6.4096	-0.353925	-3.872422	1506.786838	-9.1310	4.961276	5.024952	-0.037160	-43.8063	40.088300	148.1580	46.6006	24.5855	-39.5875	150.5000	58.4096	28.7623	-50.8371
151.0000	6.3276	-0.354781	-3.523200	1510.431102	-9.1654	4.964768	5.028975	-0.037264	-43.9496	40.090280	148.6452	46.5200	24.2061	-39.7263	151.0000	58.3276	28.2778	-51.0144
151.5000	6.2453	-0.355556	-3.173175	1513.730805	-9.1978	4.968268	5.032981	-0.037360	-44.0951	40.092057	149.1328	46.4393	23.8257	-39.8615	151.5000	58.2453	27.7923	-51.1870
152.0000	6.1630	-0.356250	-2.822425	1516.685194	-9.2283	4.971776	5.036968	-0.037447	-44.2426	40.093626	149.6209	46.3582	23.4443	-39.9931	152.0000	58.1630	27.3059	-51.3548
152.5000	6.0804	-0.356863	-2.471032	1519.293597	-9.2568	4.975290	5.040936	-0.037525	-44.3923	40.094986	150.1094	46.2770	23.0619	-40.1211	152.5000	58.0804	26.8186	-51.5180
153.0000	5.9977	-0.357394	-2.119076	1521.555416	-9.2833	4.978809	5.044884	-0.037595	-44.5441	40.096134	150.5983	46.1955	22.6787	-40.2455	153.0000	57.9977	26.3304	-51.6764
153.5000	5.9150	-0.357844	-1.766635	1523.470138	-9.3079	4.982334	5.048809	-0.037656	-44.6980	40.097066	151.0878	46.1138	22.2946	-40.3663	153.5000	57.9150	25.8415	-51.8301
154.0000	5.8321	-0.358212	-1.413792	1525.037324	-9.3304	4.985862	5.052710	-0.037709	-44.8541	40.097781	151.5777	46.0320	21.9097	-40.4834	154.0000	57.8321	25.3519	-51.9791
154.5000	5.7491	-0.358498	-1.060626	1526.256617	-9.3509	4.989394	5.056587	-0.037752	-45.0124	40.098276	152.0681	45.9500	21.5240	-40.5970	154.5000	57.7491	24.8616	-52.1235
155.0000	5.6661	-0.358703	-0.707219	1527.127740	-9.3694	4.992928	5.060437	-0.037787	-45.1728	40.098549	152.5589	45.8678	21.1375	-40.7070	155.0000	57.6661	24.3708	-52.2633
155.5000	5.5831	-0.358826	-0.353650	1527.650493	-9.3858	4.996464	5.064261	-0.037814	-45.3353	40.098597	153.0503	45.7856	20.7504	-40.8135	155.5000	57.5831	23.8793	-52.3984
156.0000	5.5000	-0.358867	-0.000000	1527.824757	-9.4002	5.000000	5.068055	-0.037831	-45.5000	40.098420	153.5422	45.7032	20.3626	-40.9163	156.0000	57.5000	23.3874	-52.5289
156.5000	5.4169	-0.358826	0.353650	1527.650493	-9.4125	5.003536	5.071820	-0.037840	-45.6669	40.098016	154.0345	45.6207	19.9741	-41.0157	156.5000	57.4169	22.8949	-52.6548
157.0000	5.3339	-0.358703	0.707219	1527.127740	-9.4227	5.007072	5.075555	-0.037840	-45.8359	40.097383	154.5274	45.5382	19.5850	-41.1115	157.0000	57.3339	22.4021	-52.7761
157.5000	5.2509	-0.358498	1.060626	1526.256617	-9.4308	5.010606	5.079257	-0.037831	-46.0070	40.096520	155.0208	45.4556	19.1954	-41.2037	157.5000	57.2509	21.9090	-52.8929
158.0000	5.1679	-0.358212	1.413792	1525.037324	-9.4368	5.014138	5.082926	-0.037814	-46.1803	40.095426	155.5147	45.3730	18.8053	-41.2925	158.0000	57.1679	21.4155	-53.0052
158.5000	5.0850	-0.357844	1.766635	1523.470138	-9.4408	5.017666	5.086560	-0.037787	-46.3557	40.094101	156.0091	45.2904	18.4147	-41.3777	158.5000	57.0850	20.9217	-53.1129
159.0000	5.0023	-0.357394	2.119076	1521.555416	-9.4426	5.021191	5.090160	-0.037752	-46.5333	40.092544	156.5041	45.2077	18.0236	-41.4595	159.0000	57.0023	20.4278	-53.2162
159.5000	4.9196	-0.356863	2.471032	1519.293597	-9.4422	5.024710	5.093722	-0.037708	-46.7130	40.090754	156.9996	45.1251	17.6321	-41.5378	159.5000	56.9196	19.9337	-53.3150
160.0000	4.8370	-0.356250	2.822425	1516.685194	-9.4397	5.028224	5.097248	-0.037656	-46.8949	40.088732	157.4957	45.0426	17.2402	-41.6126	160.0000	56.8370	19.4394	-53.4094
160.5000	4.7547	-0.355556	3.173175	1513.730805	-9.4351	5.031732	5.100735	-0.037594	-47.0788	40.086477	157.9923	44.9601	16.8479	-41.6840	160.5000	56.7547	18.9451	-53.4993
161.0000	4.6724	-0.354781	3.523200	1510.431102	-9.4283	5.035232	5.104183	-0.037524	-47.2648	40.083990	158.4895	44.8776	16.4554	-41.7519	161.0000	56.6724	18.4507	-53.5848
161.5000	4.5904	-0.353925	3.872422	1506.786838	-9.4194	5.038724	5.107591	-0.037445	-47.4530	40.081272	158.9872	44.7953	16.0625	-41.8164	161.5000	56.5904	17.9564	-53.6660
162.0000	4.5086	-0.352988	4.220760	1502.798845	-9.4083	5.042208	5.110957	-0.037357	-47.6431	40.078323	159.4856	44.7131	15.6694	-41.8775	162.0000	56.5086	17.4621	-53.7429
162.5000	4.4270	-0.351971	4.568136	1498.468033	-9.3950	5.045681	5.114282	-0.037260	-47.8354	40.075144	159.9845	44.6310	15.2761	-41.9353	162.5000	56.4270	16.9679	-53.8154
163.0000	4.3457	-0.350873	4.914469	1493.795389	-9.3795	5.049145	5.117563	-0.037155	-48.0297	40.071736	160.4840	44.5490	14.8825	-41.9896	163.0000	56.3457	16.4739	-53.8836
163.5000	4.2646	-0.349696	5.259681	1488.781979	-9.3618	5.052597	5.120801	-0.037041	-48.2259	40.068101	160.9840	44.4673	14.4888	-42.0406	163.5000	56.2646	15.9800	-53.9476
164.0000	4.1838	-0.348439	5.603694	1483.428946	-9.3419	5.056037	5.123995	-0.036918	-48.4242	40.064240	161.4847	44.3857	14.0950	-42.0882	164.0000	56.1838	15.4863	-54.0073
164.5000	4.1033	-0.347102	5.946428	1477.737513	-9.3198	5.059464	5.127143	-0.036786	-48.6245	40.060156	161.9860	44.3043	13.7011	-42.1326	164.5000	56.1033	14.9929	-54.0628
165.0000	4.0231	-0.345686	6.287805	1471.708978	-9.2955	5.062878	5.130246	-0.036646	-48.8266	40.055850	162.4879	44.2232	13.3071	-42.1736	165.0000	56.0231	14.4998	-54.1141
165.5000	3.9432	-0.344191	6.627749	1465.344715	-9.2690	5.066277	5.133302	-0.036498	-49.0307	40.051325	162.9904	44.1422	12.9130	-42.2113	165.5000	55.9432	14.0071	-54.1613
166.0000	3.8637	-0.342617	6.966180	1458.646176	-9.2402	5.069662	5.136312	-0.036340	-49.2367	40.046584	163.4936	44.0616	12.5189	-42.2457	166.0000	55.8637	13.5147	-54.2043
166.5000	3.7846	-0.340966	7.303022	1451.614890	-9.2093	5.073030	5.139273	-0.036174	-49.4445	40.041628	163.9973	43.9812	12.1249	-42.2769	166.5000	55.7846	13.0227	-54.2433
167.0000	3.7059	-0.339236	7.638198	1444.252460	-9.1761	5.076382	5.142187	-0.036000	-49.6541	40.036461	164.5017	43.9012	11.7308	-42.3049	167.0000	55.7059	12.5311	-54.2781
167.5000	3.6276	-0.337430	7.971632	1436.560567	-9.1407	5.079716	5.145052	-0.035817	-49.8655	40.031087	165.0067	43.8214	11.3368	-42.3296	167.5000	55.6276	12.0400	-54.3090
168.0000	3.5497	-0.335546	8.303247	1428.540964	-9.1030	5.083032	5.147868	-0.035626	-50.0787	40.025508	165.5124	43.7420	10.9429	-42.3511	168.0000	55.5497	11.5494	-54.3358
168.5000	3.4722	-0.333586	8.632968	1420.195481	-9.0632	5.086330	5.150634	-0.035426	-50.2935	40.019729	166.0187	43.6630	10.5492	-42.3695	168.5000	55.4722	11.0594	-54.3586
169.0000	3.3952	-0.331549	8.960720	1411.526022	-9.0211	5.089607	5.153350	-0.035218	-50.5100	40.013754	166.5257	43.5843	10.1555	-42.3846	169.0000	55.3952	10.5699	-54.3775
169.5000	3.3187	-0.329437	9.286428	1402.534565	-8.9767	5.092864	5.156016	-0.035001	-50.7280	40.007586	167.0334	43.5060	9.7620	-42.3967	169.5000	55.3187	10.0810	-54.3924
170.0000	3.2427	-0.327250	9.610017	1393.223161	-8.9302	5.096100	5.158632	-0.034776	-50.9476	40.001229	167.5417	43.4282	9.3687	-42.4056	170.0000	55.2427	9.5928	-54.4035
170.5000	3.1672	-0.324989	9.931414	1383.593933	-8.8814	5.099314	5.161196	-0.034543	-51.1687	39.994689	168.0506	43.3507	8.9757	-42.4114	170.5000	55.1672	9.1052	-54.4107
171.0000	3.0923	-0.322653	10.250546	1373.649079	-8.8304	5.102505	5.163710	-0.034302	-51.3912	39.987971	168.5602	43.2737	8.5828	-42.4141	171.0000	55.0923	8.6183	-54.4140
171.5000	3.0179	-0.320243	10.567339	1363.390867	-8.7771	5.105673	5.166172	-0.034053	-51.6151	39.981078	169.0706	43.1972	8.1902	-42.4137	171.5000	55.0179	8.1322	-54.4135
172.0000	2.9440	-0.317761	10.881721	1352.821637	-8.7216	5.108817	5.168583	-0.033796	-51.8403	39.974017	169.5815	43.1212	7.7979	-42.4103	172.0000	54.9440	7.6467	-54.4093
172.5000	2.8708	-0.315205	11.193621	1341.943801	-8.6640	5.111936	5.170943	-0.033530	-52.0668	39.966793	170.0932	43.0457	7.4058	-42.4038	172.5000	54.8708	7.1621	-54.4013
173.0000	2.7981	-0.312579	11.502968	1330.759839	-8.6041	5.115030	5.173251	-0.033257	-52.2944	39.959411	170.6056	42.9707	7.0141	-42.3943	173.0000	54.7981	6.6782	-54.3896
173.5000	2.7261	-0.309880	11.809690	1319.272304	-8.5419	5.118097	5.175507	-0.032976	-52.5232	39.951878	171.1186	42.8962	6.6227	-42.3819	173.5000	54.7261	6.1952	-54.3743
174.0000	2.6546	-0.307111	12.113719	1307.483815	-8.4776	5.121137	5.177712	-0.032687	-52.7529	39.944198	171.6323	42.8223	6.2317	-42.3665	174.0000	54.6546	5.7130	-54.3552
174.5000	2.5839	-0.304272	12.414984	1295.397061	-8.4111	5.124150	5.179865	-0.032390	-52.9836	39.936379	172.1467	42.7490	5.8411	-42.3481	174.5000	54.5839	5.2316	-54.3326
175.0000	2.5138	-0.301364	12.713417	1283.014801	-8.3424	5.127134	5.181966	-0.032086	-53.2152	39.928427	172.6619	42.6763	5.4508	-42.3268	175.0000	54.5138	4.7512	-54.3063
175.5000	2.4444	-0.298387	13.008949	1270.339858	-8.2715	5.130089	5.184017	-0.031774	-53.4476	39.920348	173.1777	42.6042	5.0610	-42.3025	175.5000	54.4444	4.2717	-54.2765
176.0000	2.3756	-0.295341	13.301515	1257.375125	-8.1985	5.133015	5.186016	-0.031455	-53.6807	39.912148	173.6942	42.5327	4.6716	-42.2754	176.0000	54.3756	3.7931	-54.2432
176.5000	2.3076	-0.292229	13.591045	1244.123558	-8.1233	5.135910	5.187964	-0.031128	-53.9144	39.903836	174.2114	42.4619	4.2826	-42.2454	176.5000	54.3076	3.3154	-54.2063
177.0000	2.2404	-0.289049	13.877476	1230.588181	-8.0459	5.138775	5.189862	-0.030794	-54.1486	39.895418	174.7293	42.3918	3.8942	-42.2125	177.0000	54.2404	2.8387	-54.1660
177.5000	2.1738	-0.285804	14.160741	1216.772081	-7.9664	5.141607	5.191709	-0.030452	-54.3832	39.886900	175.2479	42.3223	3.5062	-42.1768	177.5000	54.1738	2.3630	-54.1223
178.0000	2.1080	-0.282494	14.440775	1202.678410	-7.8847	5.144408	5.193506	-0.030103	-54.6181	39.878291	175.7672	42.2536	3.1187	-42.1383	178.0000	54.1080	1.8883	-54.0751
178.5000	2.0430	-0.279119	14.717515	1188.310383	-7.8009	5.147175	5.195254	-0.029748	-54.8532	39.869598	176.2873	42.1856	2.7317	-42.0970	178.5000	54.0430	1.4147	-54.0245
179.0000	1.9788	-0.275680	14.990898	1173.671278	-7.7150	5.149909	5.196952	-0.029385	-55.0884	39.860828	176.8080	42.1183	2.3452	-42.0529	179.0000	53.9788	0.9421	-53.9706
179.5000	1.9154	-0.272179	15.260861	1158.764434	-7.6271	5.152609	5.198601	-0.029015	-55.3236	39.851990	177.3294	42.0518	1.9593	-42.0061	179.5000	53.9154	0.4705	-53.9134
180.0000	1.8528	-0.268615	15.527342	1143.593252	-7.5370	5.155273	5.200201	-0.028638	-55.5587	39.843091	177.8516	41.9860	1.5740	-41.9565	180.0000	53.8528	0.0000	-53.8528
180.5000	1.7911	-0.264991	15.790282	1128.161193	-7.4449	5.157903	5.201754	-0.028255	-55.7936	39.834139	178.3744	41.9211	1.1892	-41.9042	180.5000	53.7911	-0.4694	-53.7890
181.0000	1.7301	-0.261305	16.049619	1112.471776	-7.3507	5.160496	5.203259	-0.027865	-56.0281	39.825142	178.8979	41.8569	0.8051	-41.8492	181.0000	53.7301	-0.9377	-53.7220
181.5000	1.6701	-0.257561	16.305295	1096.528582	-7.2545	5.163053	5.204717	-0.027468	-56.2620	39.816108	179.4221	41.7936	0.4215	-41.7915	181.5000	53.6701	-1.4049	-53.6517
182.0000	1.6109	-0.253757	16.557252	1080.335246	-7.1563	5.165573	5.206128	-0.027065	-56.4954	39.807046	179.9471	41.7312	0.0385	-41.7312	182.0000	53.6109	-1.8710	-53.5783
182.5000	1.5526	-0.249895	16.805432	1063.895464	-7.0561	5.168054	5.207494	-0.026656	-56.7280	39.797964	180.4727	41.6696	-0.3438	-41.6682	182.5000	53.5526	-2.3359	-53.5016
183.0000	1.4952	-0.245977	17.049778	1047.212985	-6.9539	5.170498	5.208815	-0.026240	-56.9598	39.788870	180.9990	41.6089	-0.7254	-41.6025	183.0000	53.4952	-2.7997	-53.4219
183.5000	1.4387	-0.242002	17.290234	1030.291615	-6.8498	5.172902	5.210091	-0.025818	-57.1905	39.779774	181.5260	41.5491	-1.1065	-41.5343	183.5000	53.4387	-3.2624	-53.3391
184.0000	1.3832	-0.237973	17.526746	1013.135214	-6.7438	5.175267	5.211323	-0.025390	-57.4201	39.770682	182.0537	41.4902	-1.4868	-41.4635	184.0000	53.3832	-3.7238	-53.2532
184.5000	1.3286	-0.233888	17.759260	995.747696	-6.6358	5.177593	5.212512	-0.024956	-57.6483	39.761605	182.5820	41.4322	-1.8665	-41.3901	184.5000	53.3286	-4.1841	-53.1642
185.0000	1.2749	-0.229751	17.987723	978.133027	-6.5259	5.179877	5.213659	-0.024517	-57.8751	39.752550	183.1110	41.3752	-2.2455	-41.3142	185.0000	53.2749	-4.6432	-53.0722
185.5000	1.2222	-0.225561	18.212082	960.295226	-6.4142	5.182121	5.214764	-0.024071	-58.1004	39.743527	183.6407	41.3191	-2.6238	-41.2357	185.5000	53.2222	-5.1011	-52.9772
186.0000	1.1705	-0.221320	18.432287	942.238362	-6.3007	5.184323	5.215828	-0.023620	-58.3238	39.734543	184.1711	41.2640	-3.0013	-41.1547	186.0000	53.1705	-5.5578	-52.8792
186.5000	1.1198	-0.217028	18.648287	923.966553	-6.1853	5.186483	5.216852	-0.023163	-58.5454	39.725609	184.7021	41.2099	-3.3782	-41.0712	186.5000	53.1198	-6.0133	-52.7783
187.0000	1.0700	-0.212687	18.860033	905.483969	-6.0681	5.188600	5.217836	-0.022701	-58.7650	39.716731	185.2338	41.1568	-3.7543	-40.9852	187.0000	53.0700	-6.4676	-52.6744
187.5000	1.0213	-0.208297	19.067477	886.794824	-5.9492	5.190675	5.218782	-0.022234	-58.9823	39.707919	185.7661	41.1047	-4.1297	-40.8968	187.5000	53.0213	-6.9207	-52.5677
188.0000	0.9736	-0.203859	19.270571	867.903384	-5.8286	5.192706	5.219690	-0.021761	-59.1973	39.699182	186.2990	41.0537	-4.5043	-40.8059	188.0000	52.9736	-7.3725	-52.4581
188.5000	0.9269	-0.199376	19.469269	848.813956	-5.7062	5.194693	5.220562	-0.021284	-59.4097	39.690528	186.8326	41.0037	-4.8781	-40.7125	188.5000	52.9269	-7.8231	-52.3456
189.0000	0.8813	-0.194846	19.663525	829.530897	-5.5822	5.196635	5.221397	-0.020801	-59.6195	39.681966	187.3668	40.9548	-5.2512	-40.6168	189.0000	52.8813	-8.2725	-52.2302
189.5000	0.8367	-0.190272	19.853296	810.058604	-5.4565	5.198533	5.222197	-0.020314	-59.8265	39.673503	187.9016	40.9070	-5.6235	-40.5186	189.5000	52.8367	-8.7206	-52.1121
190.0000	0.7932	-0.185655	20.038538	790.401520	-5.3292	5.200385	5.222962	-0.019821	-60.0304	39.665150	188.4369	40.8603	-5.9951	-40.4181	190.0000	52.7932	-9.1674	-51.9912
190.5000	0.7508	-0.180996	20.219209	770.564129	-5.2004	5.202192	5.223694	-0.019325	-60.2312	39.656913	188.9729	40.8147	-6.3658	-40.3152	190.5000	52.7508	-9.6131	-51.8674
191.0000	0.7094	-0.176295	20.395267	750.550957	-5.0700	5.203953	5.224393	-0.018823	-60.4286	39.648802	189.5095	40.7702	-6.7357	-40.2099	191.0000	52.7094	-10.0574	-51.7410
191.5000	0.6692	-0.171554	20.566673	730.366568	-4.9381	5.205667	5.225061	-0.018318	-60.6226	39.640824	190.0467	40.7268	-7.1048	-40.1023	191.5000	52.6692	-10.5005	-51.6118
192.0000	0.6300	-0.166774	20.733387	710.015567	-4.8047	5.207334	5.225697	-0.017808	-60.8129	39.632987	190.5844	40.6846	-7.4731	-39.9924	192.0000	52.6300	-10.9424	-51.4799
192.5000	0.5919	-0.161955	20.895371	689.502598	-4.6699	5.208954	5.226303	-0.017294	-60.9993	39.625300	191.1226	40.6435	-7.8405	-39.8801	192.5000	52.5919	-11.3830	-51.3453
193.0000	0.5550	-0.157100	21.052589	668.832338	-4.5336	5.210526	5.226880	-0.016776	-61.1818	39.617770	191.6614	40.6036	-8.2071	-39.7656	193.0000	52.5550	-11.8223	-51.2080
193.5000	0.5192	-0.152209	21.205004	648.009504	-4.3960	5.212050	5.227429	-0.016254	-61.3602	39.610406	192.2007	40.5649	-8.5729	-39.6487	193.5000	52.5192	-12.2604	-51.0681
194.0000	0.4846	-0.147283	21.352582	627.038845	-4.2571	5.213526	5.227950	-0.015728	-61.5343	39.603213	192.7405	40.5274	-8.9378	-39.5296	194.0000	52.4846	-12.6972	-50.9255
194.5000	0.4510	-0.142324	21.495289	605.925146	-4.1169	5.214953	5.228444	-0.015199	-61.7039	39.596201	193.2809	40.4912	-9.3018	-39.4082	194.5000	52.4510	-13.1327	-50.7803
195.0000	0.4187	-0.137332	21.633092	584.673222	-3.9754	5.216331	5.228912	-0.014666	-61.8689	39.589376	193.8217	40.4561	-9.6650	-39.2846	195.0000	52.4187	-13.5669	-50.6325
195.5000	0.3875	-0.132309	21.765961	563.287923	-3.8327	5.217660	5.229355	-0.014130	-62.0291	39.582745	194.3630	40.4223	-10.0273	-39.1588	195.5000	52.3875	-13.9999	-50.4821
196.0000	0.3574	-0.127256	21.893864	541.774125	-3.6888	5.218939	5.229774	-0.013590	-62.1845	39.576315	194.9047	40.3897	-10.3887	-39.0307	196.0000	52.3574	-14.4317	-50.3292
196.5000	0.3285	-0.122173	22.016773	520.136738	-3.5439	5.220168	5.230169	-0.013047	-62.3347	39.570093	195.4469	40.3583	-10.7492	-38.9005	196.5000	52.3285	-14.8621	-50.1736
197.0000	0.3009	-0.117063	22.134659	498.380697	-3.3978	5.221347	5.230541	-0.012502	-62.4798	39.564086	195.9895	40.3282	-11.1089	-38.7680	197.0000	52.3009	-15.2913	-50.0156
197.5000	0.2743	-0.111926	22.247496	476.510965	-3.2506	5.222475	5.230891	-0.011953	-62.6194	39.558299	196.5325	40.2994	-11.4676	-38.6334	197.5000	52.2743	-15.7192	-49.8549
198.0000	0.2490	-0.106764	22.355257	454.532531	-3.1025	5.223553	5.231220	-0.011402	-62.7536	39.552739	197.0759	40.2719	-11.8254	-38.4965	198.0000	52.2490	-16.1458	-49.6918
198.5000	0.2249	-0.101577	22.457919	432.450409	-2.9534	5.224579	5.231528	-0.010848	-62.8822	39.547411	197.6197	40.2456	-12.1823	-38.3575	198.5000	52.2249	-16.5712	-49.5261
199.0000	0.2020	-0.096367	22.555458	410.269635	-2.8034	5.225555	5.231816	-0.010292	-63.0050	39.542321	198.1639	40.2207	-12.5382	-38.2164	199.0000	52.2020	-16.9953	-49.3580
199.5000	0.1803	-0.091135	22.647852	387.995271	-2.6525	5.226479	5.232084	-0.009733	-63.1220	39.537475	198.7084	40.1970	-12.8933	-38.0731	199.5000	52.1803	-17.4181	-49.1873
200.0000	0.1598	-0.085882	22.735079	365.632397	-2.5008	5.227351	5.232334	-0.009172	-63.2329	39.532878	199.2532	40.1747	-13.2473	-37.9277	200.0000	52.1598	-17.8397	-49.0142
200.5000	0.1405	-0.080610	22.817120	343.186114	-2.3483	5.228171	5.232566	-0.008609	-63.3378	39.528534	199.7984	40.1536	-13.6005	-37.7802	200.5000	52.1405	-18.2600	-48.8386
201.0000	0.1225	-0.075319	22.893955	320.661544	-2.1951	5.228940	5.232779	-0.008044	-63.4364	39.524448	200.3438	40.1339	-13.9527	-37.6305	201.0000	52.1225	-18.6790	-48.6605
201.5000	0.1057	-0.070011	22.965568	298.063824	-2.0412	5.229656	5.232976	-0.007477	-63.5286	39.520625	200.8895	40.1156	-14.3039	-37.4788	201.5000	52.1057	-19.0968	-48.4800
202.0000	0.0901	-0.064688	23.031943	275.398109	-1.8867	5.230319	5.233156	-0.006909	-63.6145	39.517068	201.4355	40.0985	-14.6541	-37.3249	202.0000	52.0901	-19.5133	-48.2971
202.5000	0.0757	-0.059349	23.093063	252.669571	-1.7316	5.230931	5.233320	-0.006338	-63.6938	39.513782	201.9817	40.0829	-15.0034	-37.1690	202.5000	52.0757	-19.9285	-48.1117
203.0000	0.0626	-0.053997	23.148915	229.883393	-1.5759	5.231489	5.233469	-0.005767	-63.7665	39.510770	202.5281	40.0685	-15.3517	-37.0110	203.0000	52.0626	-20.3425	-47.9239
203.5000	0.0507	-0.048632	23.199486	207.044774	-1.4197	5.231995	5.233601	-0.005194	-63.8325	39.508034	203.0747	40.0555	-15.6990	-36.8509	203.5000	52.0507	-20.7552	-47.7337
204.0000	0.0401	-0.043257	23.244765	184.158924	-1.2631	5.232448	5.233719	-0.004620	-63.8918	39.505579	203.6215	40.0439	-16.0453	-36.6887	204.0000	52.0401	-21.1666	-47.5410
204.5000	0.0307	-0.037871	23.284742	161.231064	-1.1061	5.232847	5.233823	-0.004045	-63.9443	39.503406	204.1685	40.0336	-16.3906	-36.5245	204.5000	52.0307	-21.5768	-47.3459
205.0000	0.0226	-0.032477	23.319406	138.266423	-0.9487	5.233194	5.233912	-0.003469	-63.9899	39.501518	204.7156	40.0247	-16.7349	-36.3582	205.0000	52.0226	-21.9857	-47.1485
205.5000	0.0157	-0.027076	23.348751	115.270241	-0.7911	5.233488	5.233986	-0.002892	-64.0285	39.499917	205.2628	40.0172	-17.0782	-36.1899	205.5000	52.0157	-22.3933	-46.9486
206.0000	0.0100	-0.021668	23.372770	92.247763	-0.6331	5.233728	5.234047	-0.002314	-64.0602	39.498605	205.8101	40.0110	-17.4204	-36.0196	206.0000	52.0100	-22.7997	-46.7463
206.5000	0.0056	-0.016255	23.391457	69.204242	-0.4750	5.233915	5.234094	-0.001736	-64.0849	39.497583	206.3575	40.0062	-17.7616	-35.8472	206.5000	52.0056	-23.2048	-46.5416
207.0000	0.0025	-0.010839	23.404808	46.144934	-0.3168	5.234048	5.234128	-0.001158	-64.1025	39.496852	206.9050	40.0027	-18.1017	-35.6728	207.0000	52.0025	-23.6086	-46.3346
207.5000	0.0006	-0.005420	23.412820	23.075099	-0.1584	5.234128	5.234148	-0.000579	-64.1131	39.496414	207.4525	40.0007	-18.4408	-35.4964	207.5000	52.0006	-24.0112	-46.1251
208.0000	0.0000	-0.000000	23.415490	0.000000	-0.0000	5.234155	5.234155	-0.000000	-64.1167	39.496267	208.0000	40.0000	-18.7789	-35.3179	208.0000	52.0000	-24.4125	-45.9133
208.5000	0.0000	0.000000	0.000000	-0.000000	0.0000	5.000000	5.000000	0.000000	-40.0000	40.395691	208.5000	40.0000	-19.0864	-35.1527	208.5000	52.0000	-24.8123	-45.6985
209.0000	0.0000	0.000000	0.000000	-0.000000	0.0000	5.000000	5.000000	0.000000	-40.0000	40.395691	209.0000	40.0000	-19.3924	-34.9848	209.0000	52.0000	-25.2101	-45.4802
209.5000	0.0000	0.000000	0.000000	-0.000000	0.0000	5.000000	5.000000	0.000000	-40.0000	40.395691	209.5000	40.0000	-19.6969	-34.8142	209.5000	52.0000	-25.6060	-45.2585
210.0000	0.0000	0.000000	0.000000	-0.000000	0.0000	5.000000	5.000000	0.000000	-40.0000	40.395691	210.0000	40.0000	-20.0000	-34.6410	210.0000	52.0000	-26.0000	-45.0333
210.5000	0.0000	0.000000	0.000000	-0.000000	0.0000	5.000000	5.000000	0.000000	-40.0000	40.395691	210.5000	40.0000	-20.3015	-34.4652	210.5000	52.0000	-26.3920	-44.8047
211.0000	0.0000	0.000000	0.000000	-0.000000	0.0000	5.000000	5.000000	0.000000	-40.0000	40.395691	211.0000	40.0000	-20.6015	-34.2867	211.0000	52.0000	-26.7820	-44.5727
211.5000	0.0000	0.000000	0.000000	-0.000000	0.0000	5.000000	5.000000	0.000000	-40.0000	40.395691	211.5000	40.0000	-20.8999	-34.1056	211.5000	52.0000	-27.1699	-44.3373
212.0000	0.0000	0.000000	0.000000	-0.000000	0.0000	5.000000	5.000000	0.000000	-40.0000	40.395691	212.0000	40.0000	-21.1968	-33.9219	212.0000	52.0000	-27.5558	-44.0985
212.5000	0.0000	0.000000	0.000000	-0.000000	0.0000	5.000000	5.000000	0.000000	-40.0000	40.395691	212.5000	40.0000	-21.4920	-33.7357	212.5000	52.0000	-27.9396	-43.8564
213.0000	0.0000	0.000000	0.000000	-0.000000	0.0000	5.000000	5.000000	0.000000	-40.0000	40.395691	213.0000	40.0000	-21.7856	-33.5468	213.0000	52.0000	-28.3212	-43.6109
213.5000	0.0000	0.000000	0.000000	-0.000000	0.0000	5.000000	5.000000	0.000000	-40.0000	40.395691	213.5000	40.0000	-22.0775	-33.3554	213.5000	52.0000	-28.7007	-43.3621
214.0000	0.0000	0.000000	0.000000	-0.000000	0.0000	5.000000	5.000000	0.000000	-40.0000	40.395691	214.0000	40.0000	-22.3677	-33.1615	214.0000	52.0000	-29.0780	-43.1100
214.5000	0.0000	0.000000	0.000000	-0.000000	0.0000	5.000000	5.000000	0.000000	-40.0000	40.395691	214.5000	40.0000	-22.6562	-32.9650	214.5000	52.0000	-29.4531	-42.8546
215.0000	0.0000	0.000000	0.000000	-0.000000	0.0000	5.000000	5.000000	0.000000	-40.0000	40.395691	215.0000	40.0000	-22.9431	-32.7661	215.0000	52.0000	-29.8260	-42.5959
215.5000	0.0000	0.000000	0.000000	-0.000000	0.0000	5.000000	5.000000	0.000000	-40.0000	40.395691	215.5000	40.0000	-23.2281	-32.5646	215.5000	52.0000	-30.1966	-42.3340
216.0000	0.0000	0.000000	0.000000	-0.000000	0.0000	5.000000	5.000000	0.000000	-40.0000	40.395691	216.0000	40.0000	-23.5114	-32.3607	216.0000	52.0000	-30.5648	-42.0689
216.5000	0.0000	0.000000	0.000000	-0.000000	0.0000	5.000000	5.000000	0.000000	-40.0000	40.395691	216.5000	40.0000	-23.7929	-32.1543	216.5000	52.0000	-30.9308	-41.8006
217.0000	0.0000	0.000000	0.000000	-0.000000	0.0000	5.000000	5.000000	0.000000	-40.0000	40.395691	217.0000	40.0000	-24.0726	-31.9454	217.0000	52.0000	-31.2944	-41.5290
217.5000	0.0000	0.000000	0.000000	-0.000000	0.0000	5.000000	5.000000	0.000000	-40.0000	40.395691	217.5000	40.0000	-24.3505	-31.7341	217.5000	52.0000	-31.6556	-41.2544
218.0000	0.0000	0.000000	0.000000	-0.000000	0.0000	5.000000	5.000000	0.000000	-40.0000	40.395691	218.0000	40.0000	-24.6265	-31.5204	218.0000	52.0000	-32.0144	-40.9766
218.5000	0.0000	0.000000	0.000000	-0.000000	0.0000	5.000000	5.000000	0.000000	-40.0000	40.395691	218.5000	40.0000	-24.9006	-31.3043	218.5000	52.0000	-32.3708	-40.6956
219.0000	0.0000	0.000000	0.000000	-0.000000	0.0000	5.000000	5.000000	0.000000	-40.0000	40.395691	219.0000	40.0000	-25.1728	-31.0858	219.0000	52.0000	-32.7247	-40.4116
219.5000	0.0000	0.000000	0.000000	-0.000000	0.0000	5.000000	5.000000	0.000000	-40.0000	40.395691	219.5000	40.0000	-25.4431	-30.8650	219.5000	52.0000	-33.0761	-40.1245
220.0000	0.0000	0.000000	0.000000	-0.000000	0.0000	5.000000	5.000000	0.000000	-40.0000	40.395691	220.0000	40.0000	-25.7115	-30.6418	220.0000	52.0000	-33.4250	-39.8343
220.5000	0.0000	0.000000	0.000000	-0.000000	0.0000	5.000000	5.000000	0.000000	-40.0000	40.395691	220.5000	40.0000	-25.9779	-30.4162	220.5000	52.0000	-33.7713	-39.5411
221.0000	0.0000	0.000000	0.000000	-0.000000	0.0000	5.000000	5.000000	0.000000	-40.0000	40.395691	221.0000	40.0000	-26.2424	-30.1884	221.0000	52.0000	-34.1151	-39.2449
221.5000	0.0000	0.000000	0.000000	-0.000000	0.0000	5.000000	5.000000	0.000000	-40.0000	40.395691	221.5000	40.0000	-26.5048	-29.9582	221.5000	52.0000	-34.4562	-38.9457
222.0000	0.0000	0.000000	0.000000	-0.000000	0.0000	5.000000	5.000000	0.000000	-40.0000	40.395691	222.0000	40.0000	-26.7652	-29.7258	222.0000	52.0000	-34.7948	-38.6435
222.5000	0.0000	0.000000	0.000000	-0.000000	0.0000	5.000000	5.000000	0.000000	-40.0000	40.395691	222.5000	40.0000	-27.0236	-29.4911	222.5000	52.0000	-35.1307	-38.3384
223.0000	0.0000	0.000000	0.000000	-0.000000	0.0000	5.000000	5.000000	0.000000	-40.0000	40.395691	223.0000	40.0000	-27.2799	-29.2541	223.0000	52.0000	-35.4639	-38.0304
223.5000	0.0000	0.000000	0.000000	-0.000000	0.0000	5.000000	5.000000	0.000000	-40.0000	40.395691	223.5000	40.0000	-27.5342	-29.0150	223.5000	52.0000	-35.7944	-37.7195
224.0000	0.0000	0.000000	0.000000	-0.000000	0.0000	5.000000	5.000000	0.000000	-40.0000	40.395691	224.0000	40.0000	-27.7863	-28.7736	224.0000	52.0000	-36.1222	-37.4057
224.5000	0.0000	0.000000	0.000000	-0.000000	0.0000	5.000000	5.000000	0.000000	-40.0000	40.395691	224.5000	40.0000	-28.0364	-28.5300	224.5000	52.0000	-36.4473	-37.0890
225.0000	0.0000	0.000000	0.000000	-0.000000	0.0000	5.000000	5.000000	0.000000	-40.0000	40.395691	225.0000	40.0000	-28.2843	-28.2843	225.0000	52.0000	-36.7696	-36.7696
225.5000	0.0000	0.000000	0.000000	-0.000000	0.0000	5.000000	5.000000	0.000000	-40.0000	40.395691	225.5000	40.0000	-28.5300	-28.0364	225.5000	52.0000	-37.0890	-36.4473
226.0000	0.0000	0.000000	0.000000	-0.000000	0.0000	5.000000	5.000000	0.000000	-40.0000	40.395691	226.0000	40.0000	-28.7736	-27.7863	226.0000	52.0000	-37.4057	-36.1222
226.5000	0.0000	0.000000	0.000000	-0.000000	0.0000	5.000000	5.000000	0.000000	-40.0000	40.395691	226.5000	40.0000	-29.0150	-27.5342	226.5000	52.0000	-37.7195	-35.7944
227.0000	0.0000	0.000000	0.000000	-0.000000	0.0000	5.000000	5.000000	0.000000	-40.0000	40.395691	227.0000	40.0000	-29.2541	-27.2799	227.0000	52.0000	-38.0304	-35.4639
227.5000	0.0000	0.000000	0.000000	-0.000000	0.0000	5.000000	5.000000	0.000000	-40.0000	40.395691	227.5000	40.0000	-29.4911	-27.0236	227.5000	52.0000	-38.3384	-35.1307
228.0000	0.0000	0.000000	0.000000	-0.000000	0.0000	5.000000	5.000000	0.000000	-40.0000	40.395691	228.0000	40.0000	-29.7258	-26.7652	228.0000	52.0000	-38.6435	-34.7948
228.5000	0.0000	0.000000	0.000000	-0.000000	0.0000	5.000000	5.000000	0.000000	-40.0000	40.395691	228.5000	40.0000	-29.9582	-26.5048	228.5000	52.0000	-38.9457	-34.4562
229.0000	0.0000	0.000000	0.000000	-0.000000	0.0000	5.000000	5.000000	0.000000	-40.0000	40.395691	229.0000	40.0000	-30.1884	-26.2424	229.0000	52.0000	-39.2449	-34.1151
229.5000	0.0000	0.000000	0.000000	-0.000000	0.0000	5.000000	5.000000	0.000000	-40.0000	40.395691	229.5000	40.0000	-30.4162	-25.9779	229.5000	52.0000	-39.5411	-33.7713
230.0000	0.0000	0.000000	0.000000	-0.000000	0.0000	5.000000	5.000000	0.000000	-40.0000	40.395691	230.0000	40.0000	-30.6418	-25.7115	230.0000	52.0000	-39.8343	-33.4250
230.5000	0.0000	0.000000	0.000000	-0.000000	0.0000	5.000000	5.000000	0.000000	-40.0000	40.395691	230.5000	40.0000	-30.8650	-25.4431	230.5000	52.0000	-40.1245	-33.0761
231.0000	0.0000	0.000000	0.000000	-0.000000	0.0000	5.000000	5.000000	0.000000	-40.0000	40.395691	231.0000	40.0000	-31.0858	-25.1728	231.0000	52.0000	-40.4116	-32.7247
231.5000	0.0000	0.000000	0.000000	-0.000000	0.0000	5.000000	5.000000	0.000000	-40.0000	40.395691	231.5000	40.0000	-31.3043	-24.9006	231.5000	52.0000	-40.6956	-32.3708
232.0000	0.0000	0.000000	0.000000	-0.000000	0.0000	5.000000	5.000000	0.000000	-40.0000	40.395691	232.0000	40.0000	-31.5204	-24.6265	232.0000	52.0000	-40.9766	-32.0144
232.5000	0.0000	0.000000	0.000000	-0.000000	0.0000	5.000000	5.000000	0.000000	-40.0000	40.395691	232.5000	40.0000	-31.7341	-24.3505	232.5000	52.0000	-41.2544	-31.6556
233.0000	0.0000	0.000000	0.000000	-0.000000	0.0000	5.000000	5.000000	0.000000	-40.0000	40.395691	233.0000	40.0000	-31.9454	-24.0726	233.0000	52.0000	-41.5290	-31.2944
233.5000	0.0000	0.000000	0.000000	-0.000000	0.0000	5.000000	5.000000	0.000000	-40.0000	40.395691	233.5000	40.0000	-32.1543	-23.7929	233.5000	52.0000	-41.8006	-30.9308
234.0000	0.0000	0.000000	0.000000	-0.000000	0.0000	5.000000	5.000000	0.000000	-40.0000	40.395691	234.0000	40.0000	-32.3607	-23.5114	234.0000	52.0000	-42.0689	-30.5648
234.5000	0.0000	0.000000	0.000000	-0.000000	0.0000	5.000000	5.000000	0.000000	-40.0000	40.395691	234.5000	40.0000	-32.5646	-23.2281	234.5000	52.0000	-42.3340	-30.1966
235.0000	0.0000	0.000000	0.000000	-0.000000	0.0000	5.000000	5.000000	0.000000	-40.0000	40.395691	235.0000	40.0000	-32.7661	-22.9431	235.0000	52.0000	-42.5959	-29.8260
235.5000	0.0000	0.000000	0.000000	-0.000000	0.0000	5.000000	5.000000	0.000000	-40.0000	40.395691	235.5000	40.0000	-32.9650	-22.6562	235.5000	52.0000	-42.8546	-29.4531
236.0000	0.0000	0.000000	0.000000	-0.000000	0.0000	5.000000	5.000000	0.000000	-40.0000	40.395691	236.0000	40.0000	-33.1615	-22.3677	236.0000	52.0000	-43.1100	-29.0780
236.5000	0.0000	0.000000	0.000000	-0.000000	0.0000	5.000000	5.000000	0.000000	-40.0000	40.395691	236.5000	40.0000	-33.3554	-22.0775	236.5000	52.0000	-43.3621	-28.7007
237.0000	0.0000	0.000000	0.000000	-0.000000	0.0000	5.000000	5.000000	0.000000	-40.0000	40.395691	237.0000	40.0000	-33.5468	-21.7856	237.0000	52.0000	-43.6109	-28.3212
237.5000	0.0000	0.000000	0.000000	-0.000000	0.0000	5.000000	5.000000	0.000000	-40.0000	40.395691	237.5000	40.0000	-33.7357	-21.4920	237.5000	52.0000	-43.8564	-27.9396
238.0000	0.0000	0.000000	0.000000	-0.000000	0.0000	5.000000	5.000000	0.000000	-40.0000	40.395691	238.0000	40.0000	-33.9219	-21.1968	238.0000	52.0000	-44.0985	-27.5558
238.5000	0.0000	0.000000	0.000000	-0.000000	0.0000	5.000000	5.000000	0.000000	-40.0000	40.395691	238.5000	40.0000	-34.1056	-20.8999	238.5000	52.0000	-44.3373	-27.1699
239.0000	0.0000	0.000000	0.000000	-0.000000	0.0000	5.000000	5.000000	0.000000	-40.0000	40.395691	239.0000	40.0000	-34.2867	-20.6015	239.0000	52.0000	-44.5727	-26.7820
239.5000	0.0000	0.000000	0.000000	-0.000000	0.0000	5.000000	5.000000	0.000000	-40.0000	40.395691	239.5000	40.0000	-34.4652	-20.3015	239.5000	52.0000	-44.8047	-26.3920
240.0000	0.0000	0.000000	0.000000	-0.000000	0.0000	5.000000	5.000000	0.000000	-40.0000	40.395691	240.0000	40.0000	-34.6410	-20.0000	240.0000	52.0000	-45.0333	-26.0000
240.5000	0.0000	0.000000	0.000000	-0.000000	0.0000	5.000000	5.000000	0.000000	-40.0000	40.395691	240.5000	40.0000	-34.8142	-19.6969	240.5000	52.0000	-45.2585	-25.6060
241.0000	0.0000	0.000000	0.000000	-0.000000	0.0000	5.000000	5.000000	0.000000	-40.0000	40.395691	241.0000	40.0000	-34.9848	-19.3924	241.0000	52.0000	-45.4802	-25.2101
241.5000	0.0000	0.000000	0.000000	-0.000000	0.0000	5.000000	5.000000	0.000000	-40.0000	40.395691	241.5000	40.0000	-35.1527	-19.0864	241.5000	52.0000	-45.6985	-24.8123
242.0000	0.0000	0.000000	0.000000	-0.000000	0.0000	5.000000	5.000000	0.000000	-40.0000	40.395691	242.0000	40.0000	-35.3179	-18.7789	242.0000	52.0000	-45.9133	-24.4125
242.5000	0.0000	0.000000	0.000000	-0.000000	0.0000	5.000000	5.000000	0.000000	-40.0000	40.395691	242.5000	40.0000	-35.4804	-18.4699	242.5000	52.0000	-46.1246	-24.0109
243.0000	0.0000	0.000000	0.000000	-0.000000	0.0000	5.000000	5.000000	0.000000	-40.0000	40.395691	243.0000	40.0000	-35.6403	-18.1596	243.0000	52.0000	-46.3323	-23.6075
243.5000	0.0000	0.000000	0.000000	-0.000000	0.0000	5.000000	5.000000	0.000000	-40.0000	40.395691	243.5000	40.0000	-35.7974	-17.8479	243.5000	52.0000	-46.5366	-23.2023
244.0000	0.0000	0.000000	0.000000	-0.000000	0.0000	5.000000	5.000000	0.000000	-40.0000	40.395691	244.0000	40.0000	-35.9518	-17.5348	244.0000	52.0000	-46.7373	-22.7953
244.5000	0.0000	0.000000	0.000000	-0.000000	0.0000	5.000000	5.000000	0.000000	-40.0000	40.395691	244.5000	40.0000	-36.1034	-17.2204	244.5000	52.0000	-46.9344	-22.3866
245.0000	0.0000	0.000000	0.000000	-0.000000	0.0000	5.000000	5.000000	0.000000	-40.0000	40.395691	245.0000	40.0000	-36.2523	-16.9047	245.0000	52.0000	-47.1280	-21.9761
245.5000	0.0000	0.000000	0.000000	-0.000000	0.0000	5.000000	5.000000	0.000000	-40.0000	40.395691	245.5000	40.0000	-36.3985	-16.5877	245.5000	52.0000	-47.3180	-21.5640
246.0000	0.0000	0.000000	0.000000	-0.000000	0.0000	5.000000	5.000000	0.000000	-40.0000	40.395691	246.0000	40.0000	-36.5418	-16.2695	246.0000	52.0000	-47.5044	-21.1503
246.5000	0.0000	0.000000	0.000000	-0.000000	0.0000	5.000000	5.000000	0.000000	-40.0000	40.395691	246.5000	40.0000	-36.6824	-15.9500	246.5000	52.0000	-47.6871	-20.7350
247.0000	0.0000	0.000000	0.000000	-0.000000	0.0000	5.000000	5.000000	0.000000	-40.0000	40.395691	247.0000	40.0000	-36.8202	-15.6292	247.0000	52.0000	-47.8663	-20.3180
247.5000	0.0000	0.000000	0.000000	-0.000000	0.0000	5.000000	5.000000	0.000000	-40.0000	40.395691	247.5000	40.0000	-36.9552	-15.3073	247.5000	52.0000	-48.0417	-19.8995
248.0000	0.0000	0.000000	0.000000	-0.000000	0.0000	5.000000	5.000000	0.000000	-40.0000	40.395691	248.0000	40.0000	-37.0874	-14.9843	248.0000	52.0000	-48.2136	-19.4795
248.5000	0.0000	0.000000	0.000000	-0.000000	0.0000	5.000000	5.000000	0.000000	-40.0000	40.395691	248.5000	40.0000	-37.2167	-14.6600	248.5000	52.0000	-48.3817	-19.0581
249.0000	0.0000	0.000000	0.000000	-0.000000	0.0000	5.000000	5.000000	0.000000	-40.0000	40.395691	249.0000	40.0000	-37.3432	-14.3347	249.0000	52.0000	-48.5462	-18.6351
249.5000	0.0000	0.000000	0.000000	-0.000000	0.0000	5.000000	5.000000	0.000000	-40.0000	40.395691	249.5000	40.0000	-37.4669	-14.0083	249.5000	52.0000	-48.7070	-18.2108
250.0000	0.0000	0.000000	0.000000	-0.000000	0.0000	5.000000	5.000000	0.000000	-40.0000	40.395691	250.0000	40.0000	-37.5877	-13.6808	250.0000	52.0000	-48.8640	-17.7850
250.5000	0.0000	0.000000	0.000000	-0.000000	0.0000	5.000000	5.000000	0.000000	-40.0000	40.395691	250.5000	40.0000	-37.7057	-13.3523	250.5000	52.0000	-49.0174	-17.3580
251.0000	0.0000	0.000000	0.000000	-0.000000	0.0000	5.000000	5.000000	0.000000	-40.0000	40.395691	251.0000	40.0000	-37.8207	-13.0227	251.0000	52.0000	-49.1670	-16.9295
251.5000	0.0000	0.000000	0.000000	-0.000000	0.0000	5.000000	5.000000	0.000000	-40.0000	40.395691	251.5000	40.0000	-37.9329	-12.6922	251.5000	52.0000	-49.3128	-16.4998
252.0000	0.0000	0.000000	0.000000	-0.000000	0.0000	5.000000	5.000000	0.000000	-40.0000	40.395691	252.0000	40.0000	-38.0423	-12.3607	252.0000	52.0000	-49.4549	-16.0689
252.5000	0.0000	0.000000	0.000000	-0.000000	0.0000	5.000000	5.000000	0.000000	-40.0000	40.395691	252.5000	40.0000	-38.1487	-12.0282	252.5000	52.0000	-49.5933	-15.6367
253.0000	0.0000	0.000000	0.000000	-0.000000	0.0000	5.000000	5.000000	0.000000	-40.0000	40.395691	253.0000	40.0000	-38.2522	-11.6949	253.0000	52.0000	-49.7278	-15.2033
253.5000	0.0000	0.000000	0.000000	-0.000000	0.0000	5.000000	5.000000	0.000000	-40.0000	40.395691	253.5000	40.0000	-38.3528	-11.3606	253.5000	52.0000	-49.8586	-14.7688
254.0000	0.0000	0.000000	0.000000	-0.000000	0.0000	5.000000	5.000000	0.000000	-40.0000	40.395691	254.0000	40.0000	-38.4505	-11.0255	254.0000	52.0000	-49.9856	-14.3331
254.5000	0.0000	0.000000	0.000000	-0.000000	0.0000	5.000000	5.000000	0.000000	-40.0000	40.395691	254.5000	40.0000	-38.5452	-10.6895	254.5000	52.0000	-50.1088	-13.8964
255.0000	0.0000	0.000000	0.000000	-0.000000	0.0000	5.000000	5.000000	0.000000	-40.0000	40.395691	255.0000	40.0000	-38.6370	-10.3528	255.0000	52.0000	-50.2281	-13.4586
255.5000	0.0000	0.000000	0.000000	-0.000000	0.0000	5.000000	5.000000	0.000000	-40.0000	40.395691	255.5000	40.0000	-38.7259	-10.0152	255.5000	52.0000	-50.3437	-13.0198
256.0000	0.0000	0.000000	0.000000	-0.000000	0.0000	5.000000	5.000000	0.000000	-40.0000	40.395691	256.0000	40.0000	-38.8118	-9.6769	256.0000	52.0000	-50.4554	-12.5799
256.5000	0.0000	0.000000	0.000000	-0.000000	0.0000	5.000000	5.000000	0.000000	-40.0000	40.395691	256.5000	40.0000	-38.8948	-9.3378	256.5000	52.0000	-50.5632	-12.1392
257.0000	0.0000	0.000000	0.000000	-0.000000	0.0000	5.000000	5.000000	0.000000	-40.0000	40.395691	257.0000	40.0000	-38.9748	-8.9980	257.0000	52.0000	-50.6672	-11.6975
257.5000	0.0000	0.000000	0.000000	-0.000000	0.0000	5.000000	5.000000	0.000000	-40.0000	40.395691	257.5000	40.0000	-39.0518	-8.6576	257.5000	52.0000	-50.7674	-11.2549
258.0000	0.0000	0.000000	0.000000	-0.000000	0.0000	5.000000	5.000000	0.000000	-40.0000	40.395691	258.0000	40.0000	-39.1259	-8.3165	258.0000	52.0000	-50.8637	-10.8114
258.5000	0.0000	0.000000	0.000000	-0.000000	0.0000	5.000000	5.000000	0.000000	-40.0000	40.395691	258.5000	40.0000	-39.1970	-7.9747	258.5000	52.0000	-50.9561	-10.3671
259.0000	0.0000	0.000000	0.000000	-0.000000	0.0000	5.000000	5.000000	0.000000	-40.0000	40.395691	259.0000	40.0000	-39.2651	-7.6324	259.0000	52.0000	-51.0446	-9.9221
259.5000	0.0000	0.000000	0.000000	-0.000000	0.0000	5.000000	5.000000	0.000000	-40.0000	40.395691	259.5000	40.0000	-39.3302	-7.2894	259.5000	52.0000	-51.1293	-9.4762
260.0000	0.0000	0.000000	0.000000	-0.000000	0.0000	5.000000	5.000000	0.000000	-40.0000	40.395691	260.0000	40.0000	-39.3923	-6.9459	260.0000	52.0000	-51.2100	-9.0297
260.5000	0.0000	0.000000	0.000000	-0.000000	0.0000	5.000000	5.000000	0.000000	-40.0000	40.395691	260.5000	40.0000	-39.4514	-6.6019	260.5000	52.0000	-51.2869	-8.5825
261.0000	0.0000	0.000000	0.000000	-0.000000	0.0000	5.000000	5.000000	0.000000	-40.0000	40.395691	261.0000	40.0000	-39.5075	-6.2574	261.0000	52.0000	-51.3598	-8.1346
261.5000	0.0000	0.000000	0.000000	-0.000000	0.0000	5.000000	5.000000	0.000000	-40.0000	40.395691	261.5000	40.0000	-39.5606	-5.9124	261.5000	52.0000	-51.4288	-7.6861
262.0000	0.0000	0.000000	0.000000	-0.000000	0.0000	5.000000	5.000000	0.000000	-40.0000	40.395691	262.0000	40.0000	-39.6107	-5.5669	262.0000	52.0000	-51.4939	-7.2370
262.5000	0.0000	0.000000	0.000000	-0.000000	0.0000	5.000000	5.000000	0.000000	-40.0000	40.395691	262.5000	40.0000	-39.6578	-5.2210	262.5000	52.0000	-51.5551	-6.7874
263.0000	0.0000	0.000000	0.000000	-0.000000	0.0000	5.000000	5.000000	0.000000	-40.0000	40.395691	263.0000	40.0000	-39.7018	-4.8748	263.0000	52.0000	-51.6124	-6.3372
263.5000	0.0000	0.000000	0.000000	-0.000000	0.0000	5.000000	5.000000	0.000000	-40.0000	40.395691	263.5000	40.0000	-39.7429	-4.5281	263.5000	52.0000	-51.6657	-5.8866
264.0000	0.0000	0.000000	0.000000	-0.000000	0.0000	5.000000	5.000000	0.000000	-40.0000	40.395691	264.0000	40.0000	-39.7809	-4.1811	264.0000	52.0000	-51.7151	-5.4355
264.5000	0.0000	0.000000	0.000000	-0.000000	0.0000	5.000000	5.000000	0.000000	-40.0000	40.395691	264.5000	40.0000	-39.8158	-3.8338	264.5000	52.0000	-51.7606	-4.9840
265.0000	0.0000	0.000000	0.000000	-0.000000	0.0000	5.000000	5.000000	0.000000	-40.0000	40.395691	265.0000	40.0000	-39.8478	-3.4862	265.0000	52.0000	-51.8021	-4.5321
265.5000	0.0000	0.000000	0.000000	-0.000000	0.0000	5.000000	5.000000	0.000000	-40.0000	40.395691	265.5000	40.0000	-39.8767	-3.1384	265.5000	52.0000	-51.8397	-4.0799
266.0000	0.0000	0.000000	0.000000	-0.000000	0.0000	5.000000	5.000000	0.000000	-40.0000	40.395691	266.0000	40.0000	-39.9026	-2.7903	266.0000	52.0000	-51.8733	-3.6273
266.5000	0.0000	0.000000	0.000000	-0.000000	0.0000	5.000000	5.000000	0.000000	-40.0000	40.395691	266.5000	40.0000	-39.9254	-2.4419	266.5000	52.0000	-51.9030	-3.1745
267.0000	0.0000	0.000000	0.000000	-0.000000	0.0000	5.000000	5.000000	0.000000	-40.0000	40.395691	267.0000	40.0000	-39.9452	-2.0934	267.0000	52.0000	-51.9287	-2.7215
267.5000	0.0000	0.000000	0.000000	-0.000000	0.0000	5.000000	5.000000	0.000000	-40.0000	40.395691	267.5000	40.0000	-39.9619	-1.7448	267.5000	52.0000	-51.9505	-2.2682
268.0000	0.0000	0.000000	0.000000	-0.000000	0.0000	5.000000	5.000000	0.000000	-40.0000	40.395691	268.0000	40.0000	-39.9756	-1.3960	268.0000	52.0000	-51.9683	-1.8148
268.5000	0.0000	0.000000	0.000000	-0.000000	0.0000	5.000000	5.000000	0.000000	-40.0000	40.395691	268.5000	40.0000	-39.9863	-1.0471	268.5000	52.0000	-51.9822	-1.3612
269.0000	0.0000	0.000000	0.000000	-0.000000	0.0000	5.000000	5.000000	0.000000	-40.0000	40.395691	269.0000	40.0000	-39.9939	-0.6981	269.0000	52.0000	-51.9921	-0.9075
269.5000	0.0000	0.000000	0.000000	-0.000000	0.0000	5.000000	5.000000	0.000000	-40.0000	40.395691	269.5000	40.0000	-39.9985	-0.3491	269.5000	52.0000	-51.9980	-0.4538
270.0000	0.0000	0.000000	0.000000	-0.000000	0.0000	5.000000	5.000000	0.000000	-40.0000	40.395691	270.0000	40.0000	-40.0000	-0.0000	270.0000	52.0000	-52.0000	-0.0000
270.5000	0.0000	0.000000	0.000000	-0.000000	0.0000	5.000000	5.000000	0.000000	-40.0000	40.395691	270.5000	40.0000	-39.9985	0.3491	270.5000	52.0000	-51.9980	0.4538
271.0000	0.0000	0.000000	0.000000	-0.000000	0.0000	5.000000	5.000000	0.000000	-40.0000	40.395691	271.0000	40.0000	-39.9939	0.6981	271.0000	52.0000	-51.9921	0.9075
271.5000	0.0000	0.000000	0.000000	-0.000000	0.0000	5.000000	5.000000	0.000000	-40.0000	40.395691	271.5000	40.0000	-39.9863	1.0471	271.5000	52.0000	-51.9822	1.3612
272.0000	0.0000	0.000000	0.000000	-0.000000	0.0000	5.000000	5.000000	0.000000	-40.0000	40.395691	272.0000	40.0000	-39.9756	1.3960	272.0000	52.0000	-51.9683	1.8148
272.5000	0.0000	0.000000	0.000000	-0.000000	0.0000	5.000000	5.000000	0.000000	-40.0000	40.395691	272.5000	40.0000	-39.9619	1.7448	272.5000	52.0000	-51.9505	2.2682
273.0000	0.0000	0.000000	0.000000	-0.000000	0.0000	5.000000	5.000000	0.000000	-40.0000	40.395691	273.0000	40.0000	-39.9452	2.0934	273.0000	52.0000	-51.9287	2.7215
273.5000	0.0000	0.000000	0.000000	-0.000000	0.0000	5.000000	5.000000	0.000000	-40.0000	40.395691	273.5000	40.0000	-39.9254	2.4419	273.5000	52.0000	-51.9030	3.1745
274.0000	0.0000	0.000000	0.000000	-0.000000	0.0000	5.000000	5.000000	0.000000	-40.0000	40.395691	274.0000	40.0000	-39.9026	2.7903	274.0000	52.0000	-51.8733	3.6273
274.5000	0.0000	0.000000	0.000000	-0.000000	0.0000	5.000000	5.000000	0.000000	-40.0000	40.395691	274.5000	40.0000	-39.8767	3.1384	274.5000	52.0000	-51.8397	4.0799
275.0000	0.0000	0.000000	0.000000	-0.000000	0.0000	5.000000	5.000000	0.000000	-40.0000	40.395691	275.0000	40.0000	-39.8478	3.4862	275.0000	52.0000	-51.8021	4.5321
275.5000	0.0000	0.000000	0.000000	-0.000000	0.0000	5.000000	5.000000	0.000000	-40.0000	40.395691	275.5000	40.0000	-39.8158	3.8338	275.5000	52.0000	-51.7606	4.9840
276.0000	0.0000	0.000000	0.000000	-0.000000	0.0000	5.000000	5.000000	0.000000	-40.0000	40.395691	276.0000	40.0000	-39.7809	4.1811	276.0000	52.0000	-51.7151	5.4355
276.5000	0.0000	0.000000	0.000000	-0.000000	0.0000	5.000000	5.000000	0.000000	-40.0000	40.395691	276.5000	40.0000	-39.7429	4.5281	276.5000	52.0000	-51.6657	5.8866
277.0000	0.0000	0.000000	0.000000	-0.000000	0.0000	5.000000	5.000000	0.000000	-40.0000	40.395691	277.0000	40.0000	-39.7018	4.8748	277.0000	52.0000	-51.6124	6.3372
277.5000	0.0000	0.000000	0.000000	-0.000000	0.0000	5.000000	5.000000	0.000000	-40.0000	40.395691	277.5000	40.0000	-39.6578	5.2210	277.5000	52.0000	-51.5551	6.7874
278.0000	0.0000	0.000000	0.000000	-0.000000	0.0000	5.000000	5.000000	0.000000	-40.0000	40.395691	278.0000	40.0000	-39.6107	5.5669	278.0000	52.0000	-51.4939	7.2370
278.5000	0.0000	0.000000	0.000000	-0.000000	0.0000	5.000000	5.000000	0.000000	-40.0000	40.395691	278.5000	40.0000	-39.5606	5.9124	278.5000	52.0000	-51.4288	7.6861
279.0000	0.0000	0.000000	0.000000	-0.000000	0.0000	5.000000	5.000000	0.000000	-40.0000	40.395691	279.0000	40.0000	-39.5075	6.2574	279.0000	52.0000	-51.3598	8.1346
279.5000	0.0000	0.000000	0.000000	-0.000000	0.0000	5.000000	5.000000	0.000000	-40.0000	40.395691	279.5000	40.0000	-39.4514	6.6019	279.5000	52.0000	-51.2869	8.5825
280.0000	0.0000	0.000000	0.000000	-0.000000	0.0000	5.000000	5.000000	0.000000	-40.0000	40.395691	280.0000	40.0000	-39.3923	6.9459	280.0000	52.0000	-51.2100	9.0297
280.5000	0.0000	0.000000	0.000000	-0.000000	0.0000	5.000000	5.000000	0.000000	-40.0000	40.395691	280.5000	40.0000	-39.3302	7.2894	280.5000	52.0000	-51.1293	9.4762
281.0000	0.0000	0.000000	0.000000	-0.000000	0.0000	5.000000	5.000000	0.000000	-40.0000	40.395691	281.0000	40.0000	-39.2651	7.6324	281.0000	52.0000	-51.0446	9.9221
281.5000	0.0000	0.000000	0.000000	-0.000000	0.0000	5.000000	5.000000	0.000000	-40.0000	40.395691	281.5000	40.0000	-39.1970	7.9747	281.5000	52.0000	-50.9561	10.3671
282.0000	0.0000	0.000000	0.000000	-0.000000	0.0000	5.000000	5.000000	0.000000	-40.0000	40.395691	282.0000	40.0000	-39.1259	8.3165	282.0000	52.0000	-50.8637	10.8114
282.5000	0.0000	0.000000	0.000000	-0.000000	0.0000	5.000000	5.000000	0.000000	-40.0000	40.395691	282.5000	40.0000	-39.0518	8.6576	282.5000	52.0000	-50.7674	11.2549
283.0000	0.0000	0.000000	0.000000	-0.000000	0.0000	5.000000	5.000000	0.000000	-40.0000	40.395691	283.0000	40.0000	-38.9748	8.9980	283.0000	52.0000	-50.6672	11.6975
283.5000	0.0000	0.000000	0.000000	-0.000000	0.0000	5.000000	5.000000	0.000000	-40.0000	40.395691	283.5000	40.0000	-38.8948	9.3378	283.5000	52.0000	-50.5632	12.1392
284.0000	0.0000	0.000000	0.000000	-0.000000	0.0000	5.000000	5.000000	0.000000	-40.0000	40.395691	284.0000	40.0000	-38.8118	9.6769	284.0000	52.0000	-50.4554	12.5799
284.5000	0.0000	0.000000	-0.000000	-0.000000	0.0000	5.000000	5.000000	0.000000	-40.0000	40.395691	284.5000	40.0000	-38.7259	10.0152	284.5000	52.0000	-50.3437	13.0198
285.0000	0.0000	0.000000	-0.000000	-0.000000	0.0000	5.000000	5.000000	0.000000	-40.0000	40.395691	285.0000	40.0000	-38.6370	10.3528	285.0000	52.0000	-50.2281	13.4586
285.5000	0.0000	0.000000	-0.000000	-0.000000	0.0000	5.000000	5.000000	0.000000	-40.0000	40.395691	285.5000	40.0000	-38.5452	10.6895	285.5000	52.0000	-50.1088	13.8964
286.0000	0.0000	0.000000	-0.000000	-0.000000	0.0000	5.000000	5.000000	0.000000	-40.0000	40.395691	286.0000	40.0000	-38.4505	11.0255	286.0000	52.0000	-49.9856	14.3331
286.5000	0.0000	0.000000	-0.000000	-0.000000	0.0000	5.000000	5.000000	0.000000	-40.0000	40.395691	286.5000	40.0000	-38.3528	11.3606	286.5000	52.0000	-49.8586	14.7688
287.0000	0.0000	0.000000	-0.000000	-0.000000	0.0000	5.000000	5.000000	0.000000	-40.0000	40.395691	287.0000	40.0000	-38.2522	11.6949	287.0000	52.0000	-49.7278	15.2033
287.5000	0.0000	0.000000	-0.000000	-0.000000	0.0000	5.000000	5.000000	0.000000	-40.0000	40.395691	287.5000	40.0000	-38.1487	12.0282	287.5000	52.0000	-49.5933	15.6367
288.0000	0.0000	0.000000	-0.000000	-0.000000	0.0000	5.000000	5.000000	0.000000	-40.0000	40.395691	288.0000	40.0000	-38.0423	12.3607	288.0000	52.0000	-49.4549	16.0689
288.5000	0.0000	0.000000	-0.000000	-0.000000	0.0000	5.000000	5.000000	0.000000	-40.0000	40.395691	288.5000	40.0000	-37.9329	12.6922	288.5000	52.0000	-49.3128	16.4998
289.0000	0.0000	0.000000	-0.000000	-0.000000	0.0000	5.000000	5.000000	0.000000	-40.0000	40.395691	289.0000	40.0000	-37.8207	13.0227	289.0000	52.0000	-49.1670	16.9295
289.5000	0.0000	0.000000	-0.000000	-0.000000	0.0000	5.000000	5.000000	0.000000	-40.0000	40.395691	289.5000	40.0000	-37.7057	13.3523	289.5000	52.0000	-49.0174	17.3580
290.0000	0.0000	0.000000	-0.000000	-0.000000	0.0000	5.000000	5.000000	0.000000	-40.0000	40.395691	290.0000	40.0000	-37.5877	13.6808	290.0000	52.0000	-48.8640	17.7850
290.5000	0.0000	0.000000	-0.000000	-0.000000	0.0000	5.000000	5.000000	0.000000	-40.0000	40.395691	290.5000	40.0000	-37.4669	14.0083	290.5000	52.0000	-48.7070	18.2108
291.0000	0.0000	0.000000	-0.000000	-0.000000	0.0000	5.000000	5.000000	0.000000	-40.0000	40.395691	291.0000	40.0000	-37.3432	14.3347	291.0000	52.0000	-48.5462	18.6351
291.5000	0.0000	0.000000	-0.000000	-0.000000	0.0000	5.000000	5.000000	0.000000	-40.0000	40.395691	291.5000	40.0000	-37.2167	14.6600	291.5000	52.0000	-48.3817	19.0581
292.0000	0.0000	0.000000	-0.000000	-0.000000	0.0000	5.000000	5.000000	0.000000	-40.0000	40.395691	292.0000	40.0000	-37.0874	14.9843	292.0000	52.0000	-48.2136	19.4795
292.5000	0.0000	0.000000	-0.000000	-0.000000	0.0000	5.000000	5.000000	0.000000	-40.0000	40.395691	292.5000	40.0000	-36.9552	15.3073	292.5000	52.0000	-48.0417	19.8995
293.0000	0.0000	0.000000	-0.000000	-0.000000	0.0000	5.000000	5.000000	0.000000	-40.0000	40.395691	293.0000	40.0000	-36.8202	15.6292	293.0000	52.0000	-47.8663	20.3180
293.5000	0.0000	0.000000	-0.000000	-0.000000	0.0000	5.000000	5.000000	0.000000	-40.0000	40.395691	293.5000	40.0000	-36.6824	15.9500	293.5000	52.0000	-47.6871	20.7350
294.0000	0.0000	0.000000	-0.000000	-0.000000	0.0000	5.000000	5.000000	0.000000	-40.0000	40.395691	294.0000	40.0000	-36.5418	16.2695	294.0000	52.0000	-47.5044	21.1503
294.5000	0.0000	0.000000	-0.000000	-0.000000	0.0000	5.000000	5.000000	0.000000	-40.0000	40.395691	294.5000	40.0000	-36.3985	16.5877	294.5000	52.0000	-47.3180	21.5640
295.0000	0.0000	0.000000	-0.000000	-0.000000	0.0000	5.000000	5.000000	0.000000	-40.0000	40.395691	295.0000	40.0000	-36.2523	16.9047	295.0000	52.0000	-47.1280	21.9761
295.5000	0.0000	0.000000	-0.000000	-0.000000	0.0000	5.000000	5.000000	0.000000	-40.0000	40.395691	295.5000	40.0000	-36.1034	17.2204	295.5000	52.0000	-46.9344	22.3866
296.0000	0.0000	0.000000	-0.000000	-0.000000	0.0000	5.000000	5.000000	0.000000	-40.0000	40.395691	296.0000	40.0000	-35.9518	17.5348	296.0000	52.0000	-46.7373	22.7953
296.5000	0.0000	0.000000	-0.000000	-0.000000	0.0000	5.000000	5.000000	0.000000	-40.0000	40.395691	296.5000	40.0000	-35.7974	17.8479	296.5000	52.0000	-46.5366	23.2023
297.0000	0.0000	0.000000	-0.000000	-0.000000	0.0000	5.000000	5.000000	0.000000	-40.0000	40.395691	297.0000	40.0000	-35.6403	18.1596	297.0000	52.0000	-46.3323	23.6075
297.5000	0.0000	0.000000	-0.000000	-0.000000	0.0000	5.000000	5.000000	0.000000	-40.0000	40.395691	297.5000	40.0000	-35.4804	18.4699	297.5000	52.0000	-46.1246	24.0109
298.0000	0.0000	0.000000	-0.000000	-0.000000	0.0000	5.000000	5.000000	0.000000	-40.0000	40.395691	298.0000	40.0000	-35.3179	18.7789	298.0000	52.0000	-45.9133	24.4125
298.5000	0.0000	0.000000	-0.000000	-0.000000	0.0000	5.000000	5.000000	0.000000	-40.0000	40.395691	298.5000	40.0000	-35.1527	19.0864	298.5000	52.0000	-45.6985	24.8123
299.0000	0.0000	0.000000	-0.000000	-0.000000	0.0000	5.000000	5.000000	0.000000	-40.0000	40.395691	299.0000	40.0000	-34.9848	19.3924	299.0000	52.0000	-45.4802	25.2101
299.5000	0.0000	0.000000	-0.000000	-0.000000	0.0000	5.000000	5.000000	0.000000	-40.0000	40.395691	299.5000	40.0000	-34.8142	19.6969	299.5000	52.0000	-45.2585	25.6060
300.0000	0.0000	0.000000	-0.000000	-0.000000	0.0000	5.000000	5.000000	0.000000	-40.0000	40.395691	300.0000	40.0000	-34.6410	20.0000	300.0000	52.0000	-45.0333	26.0000
300.5000	0.0000	0.000000	-0.000000	-0.000000	0.0000	5.000000	5.000000	0.000000	-40.0000	40.395691	300.5000	40.0000	-34.4652	20.3015	300.5000	52.0000	-44.8047	26.3920
301.0000	0.0000	0.000000	-0.000000	-0.000000	0.0000	5.000000	5.000000	0.000000	-40.0000	40.395691	301.0000	40.0000	-34.2867	20.6015	301.0000	52.0000	-44.5727	26.7820
301.5000	0.0000	0.000000	-0.000000	-0.000000	0.0000	5.000000	5.000000	0.000000	-40.0000	40.395691	301.5000	40.0000	-34.1056	20.8999	301.5000	52.0000	-44.3373	27.1699
302.0000	0.0000	0.000000	-0.000000	-0.000000	0.0000	5.000000	5.000000	0.000000	-40.0000	40.395691	302.0000	40.0000	-33.9219	21.1968	302.0000	52.0000	-44.0985	27.5558
302.5000	0.0000	0.000000	-0.000000	-0.000000	0.0000	5.000000	5.000000	0.000000	-40.0000	40.395691	302.5000	40.0000	-33.7357	21.4920	302.5000	52.0000	-43.8564	27.9396
303.0000	0.0000	0.000000	-0.000000	-0.000000	0.0000	5.000000	5.000000	0.000000	-40.0000	40.395691	303.0000	40.0000	-33.5468	21.7856	303.0000	52.0000	-43.6109	28.3212
303.5000	0.0000	0.000000	-0.000000	-0.000000	0.0000	5.000000	5.000000	0.000000	-40.0000	40.395691	303.5000	40.0000	-33.3554	22.0775	303.5000	52.0000	-43.3621	28.7007
304.0000	0.0000	0.000000	-0.000000	-0.000000	0.0000	5.000000	5.000000	0.000000	-40.0000	40.395691	304.0000	40.0000	-33.1615	22.3677	304.0000	52.0000	-43.1100	29.0780
304.5000	0.0000	0.000000	-0.000000	-0.000000	0.0000	5.000000	5.000000	0.000000	-40.0000	40.395691	304.5000	40.0000	-32.9650	22.6562	304.5000	52.0000	-42.8546	29.4531
305.0000	0.0000	0.000000	-0.000000	-0.000000	0.0000	5.000000	5.000000	0.000000	-40.0000	40.395691	305.0000	40.0000	-32.7661	22.9431	305.0000	52.0000	-42.5959	29.8260
305.5000	0.0000	0.000000	-0.000000	-0.000000	0.0000	5.000000	5.000000	0.000000	-40.0000	40.395691	305.5000	40.0000	-32.5646	23.2281	305.5000	52.0000	-42.3340	30.1966
306.0000	0.0000	0.000000	-0.000000	-0.000000	0.0000	5.000000	5.000000	0.000000	-40.0000	40.395691	306.0000	40.0000	-32.3607	23.5114	306.0000	52.0000	-42.0689	30.5648
306.5000	0.0000	0.000000	-0.000000	-0.000000	0.0000	5.000000	5.000000	0.000000	-40.0000	40.395691	306.5000	40.0000	-32.1543	23.7929	306.5000	52.0000	-41.8006	30.9308
307.0000	0.0000	0.000000	-0.000000	-0.000000	0.0000	5.000000	5.000000	0.000000	-40.0000	40.395691	307.0000	40.0000	-31.9454	24.0726	307.0000	52.0000	-41.5290	31.2944
307.5000	0.0000	0.000000	-0.000000	-0.000000	0.0000	5.000000	5.000000	0.000000	-40.0000	40.395691	307.5000	40.0000	-31.7341	24.3505	307.5000	52.0000	-41.2544	31.6556
308.0000	0.0000	0.000000	-0.000000	-0.000000	0.0000	5.000000	5.000000	0.000000	-40.0000	40.395691	308.0000	40.0000	-31.5204	24.6265	308.0000	52.0000	-40.9766	32.0144
308.5000	0.0000	0.000000	-0.000000	-0.000000	0.0000	5.000000	5.000000	0.000000	-40.0000	40.395691	308.5000	40.0000	-31.3043	24.9006	308.5000	52.0000	-40.6956	32.3708
309.0000	0.0000	0.000000	-0.000000	-0.000000	0.0000	5.000000	5.000000	0.000000	-40.0000	40.395691	309.0000	40.0000	-31.0858	25.1728	309.0000	52.0000	-40.4116	32.7247
309.5000	0.0000	0.000000	-0.000000	-0.000000	0.0000	5.000000	5.000000	0.000000	-40.0000	40.395691	309.5000	40.0000	-30.8650	25.4431	309.5000	52.0000	-40.1245	33.0761
310.0000	0.0000	0.000000	-0.000000	-0.000000	0.0000	5.000000	5.000000	0.000000	-40.0000	40.395691	310.0000	40.0000	-30.6418	25.7115	310.0000	52.0000	-39.8343	33.4250
310.5000	0.0000	0.000000	-0.000000	-0.000000	0.0000	5.000000	5.000000	0.000000	-40.0000	40.395691	310.5000	40.0000	-30.4162	25.9779	310.5000	52.0000	-39.5411	33.7713
311.0000	0.0000	0.000000	-0.000000	-0.000000	0.0000	5.000000	5.000000	0.000000	-40.0000	40.395691	311.0000	40.0000	-30.1884	26.2424	311.0000	52.0000	-39.2449	34.1151
311.5000	0.0000	0.000000	-0.000000	-0.000000	0.0000	5.000000	5.000000	0.000000	-40.0000	40.395691	311.5000	40.0000	-29.9582	26.5048	311.5000	52.0000	-38.9457	34.4562
312.0000	0.0000	0.000000	-0.000000	-0.000000	0.0000	5.000000	5.000000	0.000000	-40.0000	40.395691	312.0000	40.0000	-29.7258	26.7652	312.0000	52.0000	-38.6435	34.7948
312.5000	0.0000	0.000000	-0.000000	-0.000000	0.0000	5.000000	5.000000	0.000000	-40.0000	40.395691	312.5000	40.0000	-29.4911	27.0236	312.5000	52.0000	-38.3384	35.1307
313.0000	0.0000	0.000000	-0.000000	-0.000000	0.0000	5.000000	5.000000	0.000000	-40.0000	40.395691	313.0000	40.0000	-29.2541	27.2799	313.0000	52.0000	-38.0304	35.4639
313.5000	0.0000	0.000000	-0.000000	-0.000000	0.0000	5.000000	5.000000	0.000000	-40.0000	40.395691	313.5000	40.0000	-29.0150	27.5342	313.5000	52.0000	-37.7195	35.7944
314.0000	0.0000	0.000000	-0.000000	-0.000000	0.0000	5.000000	5.000000	0.000000	-40.0000	40.395691	314.0000	40.0000	-28.7736	27.7863	314.0000	52.0000	-37.4057	36.1222
314.5000	0.0000	0.000000	-0.000000	-0.000000	0.0000	5.000000	5.000000	0.000000	-40.0000	40.395691	314.5000	40.0000	-28.5300	28.0364	314.5000	52.0000	-37.0890	36.4473
315.0000	0.0000	0.000000	-0.000000	-0.000000	0.0000	5.000000	5.000000	0.000000	-40.0000	40.395691	315.0000	40.0000	-28.2843	28.2843	315.0000	52.0000	-36.7696	36.7696
315.5000	0.0000	0.000000	-0.000000	-0.000000	0.0000	5.000000	5.000000	0.000000	-40.0000	40.395691	315.5000	40.0000	-28.0364	28.5300	315.5000	52.0000	-36.4473	37.0890
316.0000	0.0000	0.000000	-0.000000	-0.000000	0.0000	5.000000	5.000000	0.000000	-40.0000	40.395691	316.0000	40.0000	-27.7863	28.7736	316.0000	52.0000	-36.1222	37.4057
316.5000	0.0000	0.000000	-0.000000	-0.000000	0.0000	5.000000	5.000000	0.000000	-40.0000	40.395691	316.5000	40.0000	-27.5342	29.0150	316.5000	52.0000	-35.7944	37.7195
317.0000	0.0000	0.000000	-0.000000	-0.000000	0.0000	5.000000	5.000000	0.000000	-40.0000	40.395691	317.0000	40.0000	-27.2799	29.2541	317.0000	52.0000	-35.4639	38.0304
317.5000	0.0000	0.000000	-0.000000	-0.000000	0.0000	5.000000	5.000000	0.000000	-40.0000	40.395691	317.5000	40.0000	-27.0236	29.4911	317.5000	52.0000	-35.1307	38.3384
318.0000	0.0000	0.000000	-0.000000	-0.000000	0.0000	5.000000	5.000000	0.000000	-40.0000	40.395691	318.0000	40.0000	-26.7652	29.7258	318.0000	52.0000	-34.7948	38.6435
318.5000	0.0000	0.000000	-0.000000	-0.000000	0.0000	5.000000	5.000000	0.000000	-40.0000	40.395691	318.5000	40.0000	-26.5048	29.9582	318.5000	52.0000	-34.4562	38.9457
319.0000	0.0000	0.000000	-0.000000	-0.000000	0.0000	5.000000	5.000000	0.000000	-40.0000	40.395691	319.0000	40.0000	-26.2424	30.1884	319.0000	52.0000	-34.1151	39.2449
319.5000	0.0000	0.000000	-0.000000	-0.000000	0.0000	5.000000	5.000000	0.000000	-40.0000	40.395691	319.5000	40.0000	-25.9779	30.4162	319.5000	52.0000	-33.7713	39.5411
320.0000	0.0000	0.000000	-0.000000	-0.000000	0.0000	5.000000	5.000000	0.000000	-40.0000	40.395691	320.0000	40.0000	-25.7115	30.6418	320.0000	52.0000	-33.4250	39.8343
320.5000	0.0000	0.000000	-0.000000	-0.000000	0.0000	5.000000	5.000000	0.000000	-40.0000	40.395691	320.5000	40.0000	-25.4431	30.8650	320.5000	52.0000	-33.0761	40.1245
321.0000	0.0000	0.000000	-0.000000	-0.000000	0.0000	5.000000	5.000000	0.000000	-40.0000	40.395691	321.0000	40.0000	-25.1728	31.0858	321.0000	52.0000	-32.7247	40.4116
321.5000	0.0000	0.000000	-0.000000	-0.000000	0.0000	5.000000	5.000000	0.000000	-40.0000	40.395691	321.5000	40.0000	-24.9006	31.3043	321.5000	52.0000	-32.3708	40.6956
322.0000	0.0000	0.000000	-0.000000	-0.000000	0.0000	5.000000	5.000000	0.000000	-40.0000	40.395691	322.0000	40.0000	-24.6265	31.5204	322.0000	52.0000	-32.0144	40.9766
322.5000	0.0000	0.000000	-0.000000	-0.000000	0.0000	5.000000	5.000000	0.000000	-40.0000	40.395691	322.5000	40.0000	-24.3505	31.7341	322.5000	52.0000	-31.6556	41.2544
323.0000	0.0000	0.000000	-0.000000	-0.000000	0.0000	5.000000	5.000000	0.000000	-40.0000	40.395691	323.0000	40.0000	-24.0726	31.9454	323.0000	52.0000	-31.2944	41.5290
323.5000	0.0000	0.000000	-0.000000	-0.000000	0.0000	5.000000	5.000000	0.000000	-40.0000	40.395691	323.5000	40.0000	-23.7929	32.1543	323.5000	52.0000	-30.9308	41.8006
324.0000	0.0000	0.000000	-0.000000	-0.000000	0.0000	5.000000	5.000000	0.000000	-40.0000	40.395691	324.0000	40.0000	-23.5114	32.3607	324.0000	52.0000	-30.5648	42.0689
324.5000	0.0000	0.000000	-0.000000	-0.000000	0.0000	5.000000	5.000000	0.000000	-40.0000	40.395691	324.5000	40.0000	-23.2281	32.5646	324.5000	52.0000	-30.1966	42.3340
325.0000	0.0000	0.000000	-0.000000	-0.000000	0.0000	5.000000	5.000000	0.000000	-40.0000	40.395691	325.0000	40.0000	-22.9431	32.7661	325.0000	52.0000	-29.8260	42.5959
325.5000	0.0000	0.000000	-0.000000	-0.000000	0.0000	5.000000	5.000000	0.000000	-40.0000	40.395691	325.5000	40.0000	-22.6562	32.9650	325.5000	52.0000	-29.4531	42.8546
326.0000	0.0000	0.000000	-0.000000	-0.000000	0.0000	5.000000	5.000000	0.000000	-40.0000	40.395691	326.0000	40.0000	-22.3677	33.1615	326.0000	52.0000	-29.0780	43.1100
326.5000	0.0000	0.000000	-0.000000	-0.000000	0.0000	5.000000	5.000000	0.000000	-40.0000	40.395691	326.5000	40.0000	-22.0775	33.3554	326.5000	52.0000	-28.7007	43.3621
327.0000	0.0000	0.000000	-0.000000	-0.000000	0.0000	5.000000	5.000000	0.000000	-40.0000	40.395691	327.0000	40.0000	-21.7856	33.5468	327.0000	52.0000	-28.3212	43.6109
327.5000	0.0000	0.000000	-0.000000	-0.000000	0.0000	5.000000	5.000000	0.000000	-40.0000	40.395691	327.5000	40.0000	-21.4920	33.7357	327.5000	52.0000	-27.9396	43.8564
328.0000	0.0000	0.000000	-0.000000	-0.000000	0.0000	5.000000	5.000000	0.000000	-40.0000	40.395691	328.0000	40.0000	-21.1968	33.9219	328.0000	52.0000	-27.5558	44.0985
328.5000	0.0000	0.000000	-0.000000	-0.000000	0.0000	5.000000	5.000000	0.000000	-40.0000	40.395691	328.5000	40.0000	-20.8999	34.1056	328.5000	52.0000	-27.1699	44.3373
329.0000	0.0000	0.000000	-0.000000	-0.000000	0.0000	5.000000	5.000000	0.000000	-40.0000	40.395691	329.0000	40.0000	-20.6015	34.2867	329.0000	52.0000	-26.7820	44.5727
329.5000	0.0000	0.000000	-0.000000	-0.000000	0.0000	5.000000	5.000000	0.000000	-40.0000	40.395691	329.5000	40.0000	-20.3015	34.4652	329.5000	52.0000	-26.3920	44.8047
330.0000	0.0000	0.000000	-0.000000	-0.000000	0.0000	5.000000	5.000000	0.000000	-40.0000	40.395691	330.0000	40.0000	-20.0000	34.6410	330.0000	52.0000	-26.0000	45.0333
330.5000	0.0000	0.000000	-0.000000	-0.000000	0.0000	5.000000	5.000000	0.000000	-40.0000	40.395691	330.5000	40.0000	-19.6969	34.8142	330.5000	52.0000	-25.6060	45.2585
331.0000	0.0000	0.000000	-0.000000	-0.000000	0.0000	5.000000	5.000000	0.000000	-40.0000	40.395691	331.0000	40.0000	-19.3924	34.9848	331.0000	52.0000	-25.2101	45.4802
331.5000	0.0000	0.000000	-0.000000	-0.000000	0.0000	5.000000	5.000000	0.000000	-40.0000	40.395691	331.5000	40.0000	-19.0864	35.1527	331.5000	52.0000	-24.8123	45.6985
332.0000	0.0000	0.000000	-0.000000	-0.000000	0.0000	5.000000	5.000000	0.000000	-40.0000	40.395691	332.0000	40.0000	-18.7789	35.3179	332.0000	52.0000	-24.4125	45.9133
332.5000	0.0000	0.000000	-0.000000	-0.000000	0.0000	5.000000	5.000000	0.000000	-40.0000	40.395691	332.5000	40.0000	-18.4699	35.4804	332.5000	52.0000	-24.0109	46.1246
333.0000	0.0000	0.000000	-0.000000	-0.000000	0.0000	5.000000	5.000000	0.000000	-40.0000	40.395691	333.0000	40.0000	-18.1596	35.6403	333.0000	52.0000	-23.6075	46.3323
333.5000	0.0000	0.000000	-0.000000	-0.000000	0.0000	5.000000	5.000000	0.000000	-40.0000	40.395691	333.5000	40.0000	-17.8479	35.7974	333.5000	52.0000	-23.2023	46.5366
334.0000	0.0000	0.000000	-0.000000	-0.000000	0.0000	5.000000	5.000000	0.000000	-40.0000	40.395691	334.0000	40.0000	-17.5348	35.9518	334.0000	52.0000	-22.7953	46.7373
334.5000	0.0000	0.000000	-0.000000	-0.000000	0.0000	5.000000	5.000000	0.000000	-40.0000	40.395691	334.5000	40.0000	-17.2204	36.1034	334.5000	52.0000	-22.3866	46.9344
335.0000	0.0000	0.000000	-0.000000	-0.000000	0.0000	5.000000	5.000000	0.000000	-40.0000	40.395691	335.0000	40.0000	-16.9047	36.2523	335.0000	52.0000	-21.9761	47.1280
335.5000	0.0000	0.000000	-0.000000	-0.000000	0.0000	5.000000	5.000000	0.000000	-40.0000	40.395691	335.5000	40.0000	-16.5877	36.3985	335.5000	52.0000	-21.5640	47.3180
336.0000	0.0000	0.000000	-0.000000	-0.000000	0.0000	5.000000	5.000000	0.000000	-40.0000	40.395691	336.0000	40.0000	-16.2695	36.5418	336.0000	52.0000	-21.1503	47.5044
336.5000	0.0000	0.000000	-0.000000	-0.000000	0.0000	5.000000	5.000000	0.000000	-40.0000	40.395691	336.5000	40.0000	-15.9500	36.6824	336.5000	52.0000	-20.7350	47.6871
337.0000	0.0000	0.000000	-0.000000	-0.000000	0.0000	5.000000	5.000000	0.000000	-40.0000	40.395691	337.0000	40.0000	-15.6292	36.8202	337.0000	52.0000	-20.3180	47.8663
337.5000	0.0000	0.000000	-0.000000	-0.000000	0.0000	5.000000	5.000000	0.000000	-40.0000	40.395691	337.5000	40.0000	-15.3073	36.9552	337.5000	52.0000	-19.8995	48.0417
338.0000	0.0000	0.000000	-0.000000	-0.000000	0.0000	5.000000	5.000000	0.000000	-40.0000	40.395691	338.0000	40.0000	-14.9843	37.0874	338.0000	52.0000	-19.4795	48.2136
338.5000	0.0000	0.000000	-0.000000	-0.000000	0.0000	5.000000	5.000000	0.000000	-40.0000	40.395691	338.5000	40.0000	-14.6600	37.2167	338.5000	52.0000	-19.0581	48.3817
339.0000	0.0000	0.000000	-0.000000	-0.000000	0.0000	5.000000	5.000000	0.000000	-40.0000	40.395691	339.0000	40.0000	-14.3347	37.3432	339.0000	52.0000	-18.6351	48.5462
339.5000	0.0000	0.000000	-0.000000	-0.000000	0.0000	5.000000	5.000000	0.000000	-40.0000	40.395691	339.5000	40.0000	-14.0083	37.4669	339.5000	52.0000	-18.2108	48.7070
340.0000	0.0000	0.000000	-0.000000	-0.000000	0.0000	5.000000	5.000000	0.000000	-40.0000	40.395691	340.0000	40.0000	-13.6808	37.5877	340.0000	52.0000	-17.7850	48.8640
340.5000	0.0000	0.000000	-0.000000	-0.000000	0.0000	5.000000	5.000000	0.000000	-40.0000	40.395691	340.5000	40.0000	-13.3523	37.7057	340.5000	52.0000	-17.3580	49.0174
341.0000	0.0000	0.000000	-0.000000	-0.000000	0.0000	5.000000	5.000000	0.000000	-40.0000	40.395691	341.0000	40.0000	-13.0227	37.8207	341.0000	52.0000	-16.9295	49.1670
341.5000	0.0000	0.000000	-0.000000	-0.000000	0.0000	5.000000	5.000000	0.000000	-40.0000	40.395691	341.5000	40.0000	-12.6922	37.9329	341.5000	52.0000	-16.4998	49.3128
342.0000	0.0000	0.000000	-0.000000	-0.000000	0.0000	5.000000	5.000000	0.000000	-40.0000	40.395691	342.0000	40.0000	-12.3607	38.0423	342.0000	52.0000	-16.0689	49.4549
342.5000	0.0000	0.000000	-0.000000	-0.000000	0.0000	5.000000	5.000000	0.000000	-40.0000	40.395691	342.5000	40.0000	-12.0282	38.1487	342.5000	52.0000	-15.6367	49.5933
343.0000	0.0000	0.000000	-0.000000	-0.000000	0.0000	5.000000	5.000000	0.000000	-40.0000	40.395691	343.0000	40.0000	-11.6949	38.2522	343.0000	52.0000	-15.2033	49.7278
343.5000	0.0000	0.000000	-0.000000	-0.000000	0.0000	5.000000	5.000000	0.000000	-40.0000	40.395691	343.5000	40.0000	-11.3606	38.3528	343.5000	52.0000	-14.7688	49.8586
344.0000	0.0000	0.000000	-0.000000	-0.000000	0.0000	5.000000	5.000000	0.000000	-40.0000	40.395691	344.0000	40.0000	-11.0255	38.4505	344.0000	52.0000	-14.3331	49.9856
344.5000	0.0000	0.000000	-0.000000	-0.000000	0.0000	5.000000	5.000000	0.000000	-40.0000	40.395691	344.5000	40.0000	-10.6895	38.5452	344.5000	52.0000	-13.8964	50.1088
345.0000	0.0000	0.000000	-0.000000	-0.000000	0.0000	5.000000	5.000000	0.000000	-40.0000	40.395691	345.0000	40.0000	-10.3528	38.6370	345.0000	52.0000	-13.4586	50.2281
345.5000	0.0000	0.000000	-0.000000	-0.000000	0.0000	5.000000	5.000000	0.000000	-40.0000	40.395691	345.5000	40.0000	-10.0152	38.7259	345.5000	52.0000	-13.0198	50.3437
346.0000	0.0000	0.000000	-0.000000	-0.000000	0.0000	5.000000	5.000000	0.000000	-40.0000	40.395691	346.0000	40.0000	-9.6769	38.8118	346.0000	52.0000	-12.5799	50.4554
346.5000	0.0000	0.000000	-0.000000	-0.000000	0.0000	5.000000	5.000000	0.000000	-40.0000	40.395691	346.5000	40.0000	-9.3378	38.8948	346.5000	52.0000	-12.1392	50.5632
347.0000	0.0000	0.000000	-0.000000	-0.000000	0.0000	5.000000	5.000000	0.000000	-40.0000	40.395691	347.0000	40.0000	-8.9980	38.9748	347.0000	52.0000	-11.6975	50.6672
347.5000	0.0000	0.000000	-0.000000	-0.000000	0.0000	5.000000	5.000000	0.000000	-40.0000	40.395691	347.5000	40.0000	-8.6576	39.0518	347.5000	52.0000	-11.2549	50.7674
348.0000	0.0000	0.000000	-0.000000	-0.000000	0.0000	5.000000	5.000000	0.000000	-40.0000	40.395691	348.0000	40.0000	-8.3165	39.1259	348.0000	52.0000	-10.8114	50.8637
348.5000	0.0000	0.000000	-0.000000	-0.000000	0.0000	5.000000	5.000000	0.000000	-40.0000	40.395691	348.5000	40.0000	-7.9747	39.1970	348.5000	52.0000	-10.3671	50.9561
349.0000	0.0000	0.000000	-0.000000	-0.000000	0.0000	5.000000	5.000000	0.000000	-40.0000	40.395691	349.0000	40.0000	-7.6324	39.2651	349.0000	52.0000	-9.9221	51.0446
349.5000	0.0000	0.000000	-0.000000	-0.000000	0.0000	5.000000	5.000000	0.000000	-40.0000	40.395691	349.5000	40.0000	-7.2894	39.3302	349.5000	52.0000	-9.4762	51.1293
350.0000	0.0000	0.000000	-0.000000	-0.000000	0.0000	5.000000	5.000000	0.000000	-40.0000	40.395691	350.0000	40.0000	-6.9459	39.3923	350.0000	52.0000	-9.0297	51.2100
350.5000	0.0000	0.000000	-0.000000	-0.000000	0.0000	5.000000	5.000000	0.000000	-40.0000	40.395691	350.5000	40.0000	-6.6019	39.4514	350.5000	52.0000	-8.5825	51.2869
351.0000	0.0000	0.000000	-0.000000	-0.000000	0.0000	5.000000	5.000000	0.000000	-40.0000	40.395691	351.0000	40.0000	-6.2574	39.5075	351.0000	52.0000	-8.1346	51.3598
351.5000	0.0000	0.000000	-0.000000	-0.000000	0.0000	5.000000	5.000000	0.000000	-40.0000	40.395691	351.5000	40.0000	-5.9124	39.5606	351.5000	52.0000	-7.6861	51.4288
352.0000	0.0000	0.000000	-0.000000	-0.000000	0.0000	5.000000	5.000000	0.000000	-40.0000	40.395691	352.0000	40.0000	-5.5669	39.6107	352.0000	52.0000	-7.2370	51.4939
352.5000	0.0000	0.000000	-0.000000	-0.000000	0.0000	5.000000	5.000000	0.000000	-40.0000	40.395691	352.5000	40.0000	-5.2210	39.6578	352.5000	52.0000	-6.7874	51.5551
353.0000	0.0000	0.000000	-0.000000	-0.000000	0.0000	5.000000	5.000000	0.000000	-40.0000	40.395691	353.0000	40.0000	-4.8748	39.7018	353.0000	52.0000	-6.3372	51.6124
353.5000	0.0000	0.000000	-0.000000	-0.000000	0.0000	5.000000	5.000000	0.000000	-40.0000	40.395691	353.5000	40.0000	-4.5281	39.7429	353.5000	52.0000	-5.8866	51.6657
354.0000	0.0000	0.000000	-0.000000	-0.000000	0.0000	5.000000	5.000000	0.000000	-40.0000	40.395691	354.0000	40.0000	-4.1811	39.7809	354.0000	52.0000	-5.4355	51.7151
354.5000	0.0000	0.000000	-0.000000	-0.000000	0.0000	5.000000	5.000000	0.000000	-40.0000	40.395691	354.5000	40.0000	-3.8338	39.8158	354.5000	52.0000	-4.9840	51.7606
355.0000	0.0000	0.000000	-0.000000	-0.000000	0.0000	5.000000	5.000000	0.000000	-40.0000	40.395691	355.0000	40.0000	-3.4862	39.8478	355.0000	52.0000	-4.5321	51.8021
355.5000	0.0000	0.000000	-0.000000	-0.000000	0.0000	5.000000	5.000000	0.000000	-40.0000	40.395691	355.5000	40.0000	-3.1384	39.8767	355.5000	52.0000	-4.0799	51.8397
356.0000	0.0000	0.000000	-0.000000	-0.000000	0.0000	5.000000	5.000000	0.000000	-40.0000	40.395691	356.0000	40.0000	-2.7903	39.9026	356.0000	52.0000	-3.6273	51.8733
356.5000	0.0000	0.000000	-0.000000	-0.000000	0.0000	5.000000	5.000000	0.000000	-40.0000	40.395691	356.5000	40.0000	-2.4419	39.9254	356.5000	52.0000	-3.1745	51.9030
357.0000	0.0000	0.000000	-0.000000	-0.000000	0.0000	5.000000	5.000000	0.000000	-40.0000	40.395691	357.0000	40.0000	-2.0934	39.9452	357.0000	52.0000	-2.7215	51.9287
357.5000	0.0000	0.000000	-0.000000	-0.000000	0.0000	5.000000	5.000000	0.000000	-40.0000	40.395691	357.5000	40.0000	-1.7448	39.9619	357.5000	52.0000	-2.2682	51.9505
358.0000	0.0000	0.000000	-0.000000	-0.000000	0.0000	5.000000	5.000000	0.000000	-40.0000	40.395691	358.0000	40.0000	-1.3960	39.9756	358.0000	52.0000	-1.8148	51.9683
358.5000	0.0000	0.000000	-0.000000	-0.000000	0.0000	5.000000	5.000000	0.000000	-40.0000	40.395691	358.5000	40.0000	-1.0471	39.9863	358.5000	52.0000	-1.3612	51.9822
359.0000	0.0000	0.000000	-0.000000	-0.000000	0.0000	5.000000	5.000000	0.000000	-40.0000	40.395691	359.0000	40.0000	-0.6981	39.9939	359.0000	52.0000	-0.9075	51.9921
359.5000	0.0000	0.000000	-0.000000	-0.000000	0.0000	5.000000	5.000000	0.000000	-40.0000	40.395691	359.5000	40.0000	-0.3491	39.9985	359.5000	52.0000	-0.4538	51.9980
360.0000	0.0000	0.000000	-0.000000	-0.000000	0.0000	5.000000	5.000000	0.000000	-40.0000	40.395691	360.0000	40.0000	-0.0000	40.0000	360.0000	52.0000	-0.0000	52.0000
